File: Tinius-Olsen_Levitation_force/Measurements/20231204_1527YBCOs1_sl9_2.txt
4/12/2023 3:27:49 pm
Time(s)	Displacement(mm)	Force(N)
0.0000	-266.2680	1.0975
1.0430	-266.2680	1.0994
2.0467	-266.2680	1.1000
3.0480	-266.2680	1.0980
4.0487	-266.2680	1.0979
5.0529	-266.2680	1.1028
6.0739	-266.0000	1.1034
7.0740	-266.0000	1.1038
8.0762	-266.0000	1.1038
9.0782	-266.0000	1.1011
10.0796	-266.0000	1.1048
11.0815	-266.1520	1.0908
12.1064	-270.0000	1.0839
13.1089	-270.0000	1.0898
14.1088	-270.0000	1.0863
15.1100	-270.0000	1.0868
16.1108	-270.0000	1.0887
17.1122	-270.0000	1.0853
18.1140	-270.0000	1.0850
19.1155	-270.0000	1.0840
20.1216	-270.0000	1.0860
21.1241	-270.0000	1.0832
22.1270	-270.0000	1.0866
23.1288	-270.0000	1.0837
24.1316	-270.0000	1.0811
25.1342	-270.0000	1.0843
26.1568	-270.5800	1.0626
27.1595	-277.2470	1.0667
28.1615	-283.9460	1.0369
29.1617	-290.6110	0.9763
30.1675	-297.3130	0.8652
31.1708	-303.9780	0.6228
32.1740	-310.6790	0.1087
33.1772	-315.6410	-1.1336
34.1806	-315.6400	-0.8875
35.1839	-315.6400	-0.8271
36.1881	-315.6400	-0.7896
37.1912	-315.6400	-0.7709
38.1924	-315.6400	-0.7496
39.1965	-315.6400	-0.7335
40.1996	-315.6400	-0.7207
41.2037	-315.6400	-0.7077
42.2046	-315.6400	-0.6960
43.2090	-315.6400	-0.6870
44.2116	-315.6400	-0.6795
45.2119	-315.6400	-0.6721
46.2140	-315.6400	-0.6630
47.2161	-315.6400	-0.6579
48.2186	-315.6400	-0.6509
49.2232	-315.6400	-0.6453
50.2244	-315.6400	-0.6412
51.2243	-315.6400	-0.6335
52.2261	-315.6400	-0.6307
53.2297	-315.6400	-0.6240
54.2320	-315.6400	-0.6200
55.2337	-315.6400	-0.6141
56.2360	-315.6400	-0.6124
57.2398	-315.6400	-0.6081
58.2400	-315.6400	-0.6069
59.2413	-315.6400	-0.6002
60.2429	-315.6400	-0.5991
61.2473	-315.6400	-0.5959
62.2491	-315.6400	-0.5926
63.2538	-315.6400	-0.5891
64.2545	-315.6400	-0.5886
65.2545	-315.6400	-0.5842
66.2539	-315.6400	-0.5829
67.2589	-315.6400	-0.5790
68.2623	-315.6400	-0.5761
69.2639	-315.6400	-0.5734
70.2642	-315.6400	-0.5716
71.2657	-315.6400	-0.5687
72.2667	-315.6400	-0.5672
73.2689	-315.6400	-0.5626
74.2694	-315.6400	-0.5608
75.2722	-315.6400	-0.5633
76.2761	-315.6400	-0.5591
77.2789	-315.6400	-0.5575
78.2810	-315.6400	-0.5555
79.2827	-315.6400	-0.5531
80.2847	-315.6400	-0.5513
81.2894	-315.6400	-0.5472
82.2934	-315.6400	-0.5434
83.2954	-315.6400	-0.5447
84.2975	-315.6400	-0.5454
85.2985	-315.6400	-0.5413
86.2985	-315.6400	-0.5398
87.3026	-315.6400	-0.5393
88.3078	-315.6400	-0.5401
89.3103	-315.6400	-0.5358
90.3103	-315.6400	-0.5354
91.3115	-315.6400	-0.5297
92.3124	-315.6400	-0.5288
93.3142	-315.6400	-0.5271
94.3187	-315.6400	-0.5289
95.3221	-315.6400	-0.5266
96.3246	-315.6400	-0.5239
97.3283	-315.6400	-0.5239
98.3300	-315.6400	-0.5256
99.3300	-315.6400	-0.5226
100.3305	-315.6400	-0.5224
101.3345	-315.6400	-0.5214
102.3372	-315.6400	-0.5195
103.3416	-315.6400	-0.5174
104.3466	-315.6400	-0.5167
105.3477	-315.6400	-0.5176
106.3523	-315.6400	-0.5158
107.3525	-315.6400	-0.5128
108.3548	-315.6400	-0.5099
109.3564	-315.6400	-0.5083
110.3593	-315.6400	-0.5101
111.3625	-315.6400	-0.5093
112.3645	-315.6400	-0.5079
113.3679	-315.6400	-0.5044
114.3711	-315.6400	-0.5059
115.3738	-315.6400	-0.5020
116.3767	-315.6400	-0.5030
117.3777	-315.6400	-0.5029
118.3819	-315.6400	-0.5006
119.3877	-315.6400	-0.5022
120.3914	-315.6400	-0.5009
121.3956	-315.6400	-0.4990
122.3959	-315.6400	-0.4964
123.3971	-315.6400	-0.4955
124.3974	-315.6400	-0.4959
125.4017	-315.6400	-0.4931
126.4080	-315.6400	-0.4929
127.4085	-315.6400	-0.4921
128.4101	-315.6400	-0.4906
129.4110	-315.6400	-0.4933
130.4128	-315.6400	-0.4915
131.4146	-315.6400	-0.4879
132.4182	-315.6400	-0.4860
133.4193	-315.6400	-0.4860
134.4206	-315.6400	-0.4851
135.4220	-315.6400	-0.4853
136.4234	-315.6400	-0.4861
137.4249	-315.6400	-0.4824
138.4281	-315.6400	-0.4850
139.4293	-315.6400	-0.4784
140.4338	-315.6400	-0.4821
141.4350	-315.6400	-0.4826
142.4347	-315.6400	-0.4806
143.4373	-315.6400	-0.4814
144.4383	-315.6400	-0.4815
145.4399	-315.6400	-0.4794
146.4438	-315.6400	-0.4765
147.4457	-315.6400	-0.4768
148.4513	-315.6400	-0.4725
149.4530	-315.6400	-0.4741
150.4554	-315.6400	-0.4734
151.4553	-315.6400	-0.4757
152.4576	-315.6400	-0.4720
153.4602	-315.6400	-0.4697
154.4610	-315.6400	-0.4728
155.4630	-315.6400	-0.4703
156.4671	-315.6400	-0.4707
157.4693	-315.6400	-0.4706
158.4720	-315.6400	-0.4716
159.4744	-315.6400	-0.4706
160.4750	-315.6400	-0.4690
161.4799	-315.6400	-0.4699
162.4830	-315.6400	-0.4691
163.4831	-315.6400	-0.4657
164.4857	-315.6400	-0.4655
165.4890	-315.6400	-0.4658
166.4907	-315.6400	-0.4646
167.4948	-315.6400	-0.4629
168.4971	-315.6400	-0.4606
169.4990	-315.6400	-0.4613
170.5008	-315.6400	-0.4619
171.5055	-315.6400	-0.4594
172.5076	-315.6400	-0.4593
173.5084	-315.6400	-0.4570
174.5093	-315.6400	-0.4574
175.5115	-315.6400	-0.4567
176.5128	-315.6400	-0.4548
177.5155	-315.6400	-0.4535
178.5165	-315.6400	-0.4574
179.5183	-315.6400	-0.4528
180.5212	-315.6400	-0.4516
181.5233	-315.6400	-0.4532
182.5270	-315.6400	-0.4534
183.5274	-315.6400	-0.4500
184.5277	-315.6400	-0.4489
185.5295	-315.6400	-0.4471
186.5322	-315.6400	-0.4512
187.5354	-315.6400	-0.4509
188.5360	-315.6400	-0.4435
189.5386	-315.6400	-0.4465
190.5404	-315.6400	-0.4464
191.5426	-315.6400	-0.4446
192.5442	-315.6400	-0.4447
193.5482	-315.6400	-0.4467
194.5510	-315.6400	-0.4430
195.5531	-315.6400	-0.4441
196.5556	-315.6400	-0.4437
197.5554	-315.6400	-0.4430
198.5556	-315.6400	-0.4514
199.5604	-315.6400	-0.4478
200.5606	-315.3520	-0.4431
201.5643	-313.3410	1.4967
202.5644	-311.3410	1.8212
203.5653	-309.3420	1.8418
204.5681	-307.3430	1.7762
205.5709	-305.3320	1.6805
206.5744	-303.3210	1.5847
207.5757	-301.3220	1.4959
208.5775	-299.3220	1.4203
209.5782	-297.3120	1.3570
210.5830	-295.3120	1.3072
211.5835	-293.3110	1.2686
212.5919	-291.5790	1.2341
213.5927	-291.5800	1.2200
214.5947	-291.5800	1.2152
215.5986	-291.5800	1.2158
216.6004	-291.5800	1.2147
217.6036	-291.5800	1.2144
218.6086	-291.5800	1.2122
219.6113	-291.5800	1.2144
220.6153	-289.8550	1.2099
221.6192	-287.8450	1.1950
222.6205	-285.8450	1.1796
223.6236	-283.8350	1.1678
224.6287	-281.8250	1.1535
225.6320	-279.8140	1.1470
226.6317	-277.8150	1.1395
227.6328	-275.8150	1.1333
228.6355	-273.8050	1.1296
229.6396	-271.8040	1.1287
230.6440	-269.7950	1.1302
231.6479	-267.7850	1.1378
232.6499	-265.7850	1.1457
233.6515	-263.7750	1.1629
234.6517	-261.7760	1.1907
235.6536	-259.7760	1.2213
236.6561	-257.7660	1.2546
237.6574	-255.7660	1.2844
238.6565	-253.7660	1.3096
239.6597	-251.7670	1.3432
240.6640	-249.7570	1.3693
241.6638	-247.7560	1.3766
242.6638	-245.7570	1.3795
243.6668	-243.7470	1.3837
244.6697	-241.7360	1.3866
245.6704	-239.7470	1.3893
246.6718	-237.7370	1.3933
247.6795	-235.7170	1.3931
248.6839	-233.7170	1.3932
249.6866	-231.7070	1.3922
250.6912	-229.6970	1.3917
251.6939	-227.6970	1.3930
252.6963	-225.6880	1.3918
253.6975	-223.6880	1.3892
254.6993	-221.6780	1.3868
255.7006	-219.6790	1.3882
256.7015	-217.6780	1.3876
257.7049	-218.3070	1.3872
258.7069	-220.3070	1.3874
259.7083	-222.3070	1.3881
260.7091	-224.3170	1.3892
261.7123	-226.4900	1.3863
262.7131	-236.5350	1.3874
263.7173	-246.5360	1.3879
264.7200	-256.5850	1.3650
265.7223	-266.6340	1.2292
266.7242	-267.3350	1.1350
267.7262	-267.3350	1.1344
268.7341	-267.3350	1.1335
269.7364	-267.3350	1.1360
270.7383	-267.3350	1.1365
271.7423	-267.3350	1.1402
272.7441	-267.3350	1.1342
273.7462	-267.3350	1.1327
274.7484	-267.3350	1.1392
275.0487	-267.3350	1.1353