File: Tinius-Olsen_Levitation_force/Measurements/20231204_1541YBCOs1_sl9_4.txt
4/12/2023 3:41:07 pm
Time(s)	Displacement(mm)	Force(N)
0.0000	-315.4950	0.1475
0.9191	-309.7480	1.9050
1.8215	-303.7290	1.5896
2.7224	-297.7480	1.3627
3.6252	-291.6980	1.2417
4.5283	-285.7140	1.1797
5.4349	-279.6650	1.1516
6.3415	-273.6120	1.1503
7.2418	-267.5940	1.2070
8.1438	-265.6390	1.2304
9.0442	-265.6400	1.2292
9.9443	-265.6400	1.2283
10.8464	-265.6400	1.2298
11.7498	-265.6400	1.2310
12.6514	-265.6400	1.2268
13.5560	-265.6400	1.2260
14.4555	-265.6400	1.2272
15.3576	-265.6400	1.2293
16.2580	-265.7680	1.2143
17.1816	-271.5520	1.1466
18.0829	-277.5700	1.1289
18.9846	-283.5850	1.1274
19.8857	-289.5690	1.1227
20.7881	-295.5850	1.0829
21.6921	-301.6030	0.9194
22.5914	-307.6230	0.5853
23.4918	-312.9550	-0.1543
24.3920	-315.6400	-0.8333
25.2935	-315.6400	-0.7542
26.1954	-315.6400	-0.7210
27.1012	-315.6400	-0.7006
28.0063	-315.6400	-0.6818
28.9068	-315.6400	-0.6726
29.8088	-315.6400	-0.6614
30.7137	-315.6400	-0.6534
31.6155	-315.6400	-0.6470
32.5155	-315.6400	-0.6406
33.4196	-315.6400	-0.6325
34.3205	-315.6400	-0.6243
35.2231	-315.6400	-0.6230
36.1263	-315.6400	-0.6170
37.0319	-315.6400	-0.6116
37.9341	-315.6400	-0.6095
38.8375	-315.6400	-0.6052
39.7398	-315.6400	-0.6011
40.6414	-315.6400	-0.5989
41.5423	-315.6400	-0.5962
42.4424	-315.6400	-0.5947
43.3450	-315.6400	-0.5915
44.2466	-315.6400	-0.5900
45.1476	-315.6400	-0.5871
46.0503	-315.6400	-0.5829
46.9497	-315.6400	-0.5789
47.8522	-315.6400	-0.5775
48.7547	-315.6400	-0.5767
49.6579	-315.6400	-0.5753
50.5614	-315.6400	-0.5733
51.4652	-315.6400	-0.5705
52.3704	-315.6400	-0.5713
53.2727	-315.6400	-0.5668
54.1754	-315.6400	-0.5689
55.0757	-315.6400	-0.5645
55.9756	-315.6400	-0.5630
56.8777	-315.6400	-0.5544
57.7797	-315.6400	-0.5580
58.6821	-315.6400	-0.5580
59.5874	-315.6400	-0.5559
60.4903	-315.6400	-0.5547
61.3904	-315.6400	-0.5535
62.2927	-315.6400	-0.5523
63.1946	-315.6400	-0.5514
64.0965	-315.6400	-0.5498
64.9998	-315.6400	-0.5472
65.9019	-315.6400	-0.5480
66.8055	-315.6400	-0.5474
67.7062	-315.6400	-0.5425
68.6078	-315.6400	-0.5418
69.5095	-315.6400	-0.5404
70.4106	-315.6400	-0.5417
71.3119	-315.6400	-0.5414
72.2138	-315.6400	-0.5397
73.1175	-315.6400	-0.5400
74.0217	-315.6400	-0.5376
74.9247	-315.6400	-0.5387
75.8258	-315.6400	-0.5382
76.7269	-315.6400	-0.5357
77.6279	-315.6400	-0.5332
78.5302	-315.6400	-0.5334
79.4322	-315.6400	-0.5296
80.3356	-315.6400	-0.5317
81.2406	-315.6400	-0.5271
82.1422	-315.6400	-0.5268
83.0444	-315.6400	-0.5287
83.9467	-315.6400	-0.5234
84.8478	-315.6400	-0.5264
85.7483	-315.6400	-0.5238
86.6506	-315.6400	-0.5230
87.5513	-315.6400	-0.5228
88.4540	-315.6400	-0.5215
89.3568	-315.6400	-0.5201
90.2581	-315.6400	-0.5187
91.1599	-315.6400	-0.5181
92.0603	-315.6400	-0.5183
92.9637	-315.6400	-0.5141
93.8668	-315.6400	-0.5165
94.7717	-315.6400	-0.5175
95.6741	-315.6400	-0.5166
96.5799	-315.6400	-0.5125
97.4804	-315.6400	-0.5153
98.3806	-315.6400	-0.5139
99.2820	-315.6400	-0.5134
100.1849	-315.6400	-0.5103
101.0881	-315.6400	-0.5107
101.9897	-315.6400	-0.5095
102.8936	-315.6400	-0.5103
103.7953	-315.6400	-0.5089
104.6967	-315.6400	-0.5101
105.5986	-315.6400	-0.5070
106.5006	-315.6400	-0.5091
107.4042	-315.6400	-0.5069
108.3056	-315.6400	-0.5080
109.2090	-315.6400	-0.5056
110.1092	-315.6400	-0.5066
111.0112	-315.6400	-0.5081
111.9127	-315.6400	-0.5020
112.8149	-315.6400	-0.5026
113.7159	-315.6400	-0.5052
114.6192	-315.6400	-0.5044
115.5236	-315.6400	-0.5024
116.4264	-315.6400	-0.5055
117.3292	-315.6400	-0.5027
118.2308	-315.6400	-0.5006
119.1309	-315.6400	-0.4994
120.0313	-315.6400	-0.4971
120.9324	-315.6400	-0.4969
121.8340	-315.6400	-0.4982
122.7401	-315.6400	-0.4974
123.6440	-315.6400	-0.4972
124.5478	-315.6400	-0.4964
125.4510	-315.6400	-0.4956
126.3521	-315.6400	-0.4916
127.2545	-315.6400	-0.4973
128.1567	-315.6400	-0.4937
129.0587	-315.6400	-0.4951
129.9605	-315.6400	-0.4957
130.8647	-315.6400	-0.4898
131.7687	-315.6400	-0.4931
132.6719	-315.6400	-0.4949
133.5756	-315.6400	-0.4864
134.4768	-315.6400	-0.4913
135.3810	-315.6400	-0.4891
136.2812	-315.6400	-0.4902
137.1824	-315.6400	-0.4899
138.0856	-315.6400	-0.4868
138.9887	-315.6400	-0.4893
139.8916	-315.6400	-0.4884
140.7929	-315.6400	-0.4877
141.6970	-315.6400	-0.4873
142.5988	-315.6400	-0.4882
143.5011	-315.6400	-0.4881
144.4043	-315.6400	-0.4903
145.3072	-315.6400	-0.4858
146.2094	-315.6400	-0.4859
147.1121	-315.6400	-0.4871
148.0132	-315.6400	-0.4872
148.9174	-315.6400	-0.4855
149.8180	-315.6400	-0.4845
150.7210	-315.6400	-0.4871
151.6227	-315.6400	-0.4839
152.5246	-315.6400	-0.4848
153.4268	-315.6400	-0.4800
154.3309	-315.6400	-0.4815
155.2340	-315.6400	-0.4837
156.1361	-315.6400	-0.4827
157.0394	-315.6400	-0.4804
157.9414	-315.6400	-0.4814
158.8432	-315.6400	-0.4787
159.7464	-315.6400	-0.4801
160.6477	-315.6400	-0.4793
161.5517	-315.6400	-0.4812
162.4556	-315.6400	-0.4773
163.3592	-315.6400	-0.4778
164.2601	-315.6400	-0.4765
165.1628	-315.6400	-0.4780
166.0654	-315.6400	-0.4773
166.9684	-315.6400	-0.4754
167.8712	-315.6400	-0.4749
168.7722	-315.6400	-0.4781
169.6742	-315.6400	-0.4759
170.5766	-315.6400	-0.4744
171.4798	-315.6400	-0.4767
172.3810	-315.6400	-0.4737
173.2839	-315.6400	-0.4737
174.1838	-315.6400	-0.4733
175.0880	-315.6400	-0.4753
175.9926	-315.6400	-0.4756
176.8967	-315.6400	-0.4749
177.8005	-315.6400	-0.4732
178.7041	-315.6400	-0.4719
179.6060	-315.6400	-0.4733
180.5079	-315.6400	-0.4713
181.4111	-315.6400	-0.4708
182.3131	-315.6400	-0.4726
183.2174	-315.6400	-0.4719
184.1194	-315.6400	-0.4683
185.0228	-315.6400	-0.4716
185.9254	-315.6400	-0.4687
186.8296	-315.6400	-0.4673
187.7322	-315.6400	-0.4675
188.6343	-315.6400	-0.4673
189.5391	-315.6400	-0.4685
190.4393	-315.6400	-0.4640
191.3435	-315.6400	-0.4658
192.2460	-315.6400	-0.4663
193.1490	-315.6400	-0.4673
194.0544	-315.6400	-0.4686
194.9582	-315.6400	-0.4677
195.8629	-315.6400	-0.4652
196.7677	-315.6400	-0.4672
197.6713	-315.6400	-0.4648
198.5799	-315.6400	-0.4668
199.4827	-315.6400	-0.4650
200.3885	-315.6400	-0.4650
201.2896	-315.6400	-0.4648
202.1928	-315.6400	-0.4637
203.0943	-315.6400	-0.4652
203.9985	-315.6400	-0.4643
204.8995	-315.6400	-0.4631
205.7997	-315.6400	-0.4648
206.6994	-315.6400	-0.4625
207.6018	-315.6400	-0.4640
208.5061	-315.6400	-0.4627
209.4107	-315.6400	-0.4643
210.3120	-315.6400	-0.4635
211.2163	-315.6400	-0.4633
212.1189	-315.6400	-0.4622
213.0204	-315.6400	-0.4628
213.9255	-315.6400	-0.4610
214.8291	-315.6400	-0.4590
215.7322	-315.6400	-0.4582
216.6379	-315.6400	-0.4626
217.5420	-315.6400	-0.4608
218.4449	-315.6400	-0.4595
219.3474	-315.6400	-0.4597
220.2496	-315.6400	-0.4596
221.1552	-315.6400	-0.4580
222.0567	-315.6400	-0.4577
222.9566	-315.6400	-0.4584
223.8575	-315.6400	-0.4548
224.7602	-315.6400	-0.4606
225.6646	-315.6400	-0.4574
226.5683	-315.6400	-0.4566
227.4739	-315.6400	-0.4572
228.3771	-315.6400	-0.4602
229.2810	-315.6400	-0.4550
230.1818	-315.6400	-0.4589
231.0848	-315.6400	-0.4601
231.9869	-315.6400	-0.4538
232.9092	-311.7400	-0.4500
233.8115	-305.7240	1.9318
234.7135	-299.7080	1.6191
235.6181	-293.6930	1.3797
236.5204	-287.6410	1.2484
237.4220	-281.6590	1.1836
238.3236	-275.6440	1.1569
239.2264	-269.6280	1.1577
240.1257	-265.6390	1.2371
241.0289	-265.6400	1.2680
241.9297	-265.6400	1.2672
242.8334	-265.6400	1.2650
243.7364	-265.6400	1.2650
244.6375	-265.6400	1.2649
245.5440	-265.6400	1.2626
246.4469	-265.6400	1.2649
247.3475	-265.6400	1.2633
248.2487	-265.6400	1.2649
249.1498	-265.6400	1.2655
249.6520	-265.6400	1.2637