File: Tinius-Olsen_Levitation_force/Measurements/20231204_1640GDBCOs2_sl6_1.txt
4/12/2023 4:40:20 pm
Time(s)	Displacement(mm)	Force(N)
0.0000	-258.7030	1.1698
0.6639	-258.2070	1.1838
1.2662	-258.2080	1.1803
1.8671	-258.2080	1.1798
2.4677	-258.2080	1.1812
3.0691	-258.2080	1.1822
3.6693	-258.2080	1.1825
4.2700	-258.2080	1.1859
4.8722	-258.2080	1.1847
5.4750	-258.2080	1.1807
6.0984	-258.0010	1.1775
6.7003	-258.0000	1.1848
7.3009	-258.0000	1.1853
7.9031	-258.0000	1.1865
8.5039	-258.0000	1.1874
9.1063	-258.0000	1.1861
9.7065	-258.0000	1.1883
10.3086	-258.0000	1.1859
10.9108	-258.0000	1.1879
11.5112	-258.0000	1.1864
12.1138	-258.0000	1.1835
12.7159	-258.0000	1.1849
13.3159	-258.0000	1.1915
13.9372	-259.8930	1.1680
14.5385	-260.0000	1.1550
15.1388	-260.0000	1.1592
15.7431	-260.0000	1.1539
16.3462	-260.0000	1.1544
16.9472	-260.0000	1.1573
17.5477	-260.0000	1.1542
18.1512	-260.0000	1.1556
18.7509	-260.0000	1.1547
19.3530	-260.0000	1.1576
19.9531	-260.0000	1.1565
20.5545	-260.0000	1.1566
21.1560	-260.0000	1.1578
21.7591	-260.0000	1.1586
22.3623	-260.0000	1.1576
22.9648	-260.0000	1.1564
23.5673	-260.0000	1.1586
24.1696	-260.0000	1.1592
24.7707	-260.0000	1.1583
25.3728	-260.0000	1.1548
25.9778	-260.0000	1.1642
26.5802	-260.0000	1.1570
27.2030	-261.2020	1.1493
27.8043	-265.2380	1.0953
28.4074	-269.2370	1.0765
29.0103	-273.2710	1.0671
29.6126	-277.2690	1.0550
30.2127	-281.3030	1.0434
30.8167	-285.3010	1.0134
31.4196	-289.3350	0.9724
32.0206	-293.3330	0.8990
32.6231	-297.3320	0.7545
33.2243	-301.3710	0.4768
33.8244	-305.3690	-0.1173
34.4261	-309.3690	-1.4177
35.0281	-313.3680	-4.1100
35.6287	-316.8010	-8.6907
36.2285	-316.8000	-8.1979
36.8278	-316.8000	-7.9545
37.4303	-316.8000	-7.8189
38.0311	-316.8000	-7.7232
38.6337	-316.8000	-7.6529
39.2333	-316.8000	-7.5943
39.8349	-316.8000	-7.5448
40.4373	-316.8000	-7.5064
41.0379	-316.8000	-7.4656
41.6399	-316.8000	-7.4381
42.2412	-316.8000	-7.4053
42.8433	-316.8000	-7.3828
43.4435	-316.8000	-7.3552
44.0434	-316.8000	-7.3341
44.6445	-316.8000	-7.3104
45.2457	-316.8000	-7.2928
45.8454	-316.8000	-7.2727
46.4460	-316.8000	-7.2595
47.0469	-316.8000	-7.2470
47.6485	-316.8000	-7.2285
48.2493	-316.8000	-7.2129
48.8524	-316.8000	-7.2003
49.4560	-316.8000	-7.1857
50.0597	-316.8000	-7.1771
50.6596	-316.8000	-7.1624
51.2599	-316.8000	-7.1529
51.8633	-316.8000	-7.1396
52.4653	-316.8000	-7.1306
53.0674	-316.8000	-7.1186
53.6674	-316.8000	-7.1090
54.2690	-316.8000	-7.0995
54.8713	-316.8000	-7.0895
55.4712	-316.8000	-7.0814
56.0713	-316.8000	-7.0745
56.6711	-316.8000	-7.0655
57.2732	-316.8000	-7.0565
57.8751	-316.8000	-7.0470
58.4785	-316.8000	-7.0423
59.0794	-316.8000	-7.0359
59.6827	-316.8000	-7.0304
60.2835	-316.8000	-7.0201
60.8865	-316.8000	-7.0150
61.4877	-316.8000	-7.0123
62.0883	-316.8000	-7.0026
62.6890	-316.8000	-6.9962
63.2913	-316.8000	-6.9914
63.8945	-316.8000	-6.9828
64.4950	-316.8000	-6.9785
65.0960	-316.8000	-6.9734
65.6994	-316.8000	-6.9699
66.3014	-316.8000	-6.9602
66.9046	-316.8000	-6.9575
67.5056	-316.8000	-6.9477
68.1090	-316.8000	-6.9449
68.7116	-316.8000	-6.9401
69.3136	-316.8000	-6.9358
69.9138	-316.8000	-6.9317
70.5138	-316.8000	-6.9288
71.1135	-316.8000	-6.9241
71.7136	-316.8000	-6.9167
72.3148	-316.8000	-6.9172
72.9169	-316.8000	-6.9079
73.5200	-316.8000	-6.9043
74.1235	-316.8000	-6.8998
74.7253	-316.8000	-6.8964
75.3269	-316.8000	-6.8950
75.9300	-316.8000	-6.8911
76.5312	-316.8000	-6.8814
77.1315	-316.8000	-6.8777
77.7317	-316.8000	-6.8726
78.3314	-316.8000	-6.8711
78.9327	-316.8000	-6.8674
79.5352	-316.8000	-6.8647
80.1358	-316.8000	-6.8589
80.7385	-316.8000	-6.8574
81.3417	-316.8000	-6.8535
81.9435	-316.8000	-6.8482
82.5466	-316.8000	-6.8448
83.1480	-316.8000	-6.8404
83.7482	-316.8000	-6.8376
84.3504	-316.8000	-6.8345
84.9513	-316.8000	-6.8335
85.5534	-316.8000	-6.8310
86.1537	-316.8000	-6.8293
86.7540	-316.8000	-6.8275
87.3543	-316.8000	-6.8240
87.9557	-316.8000	-6.8211
88.5557	-316.8000	-6.8163
89.1568	-316.8000	-6.8089
89.7584	-316.8000	-6.8061
90.3637	-316.8000	-6.8059
90.9643	-316.8000	-6.8038
91.5651	-316.8000	-6.7999
92.1661	-316.8000	-6.7976
92.7673	-316.8000	-6.7925
93.3703	-316.8000	-6.7904
93.9715	-316.8000	-6.7898
94.5736	-316.8000	-6.7880
95.1765	-316.8000	-6.7835
95.7793	-316.8000	-6.7793
96.3813	-316.8000	-6.7800
96.9828	-316.8000	-6.7779
97.5853	-316.8000	-6.7748
98.1901	-316.8000	-6.7694
98.7911	-316.8000	-6.7722
99.3916	-316.8000	-6.7696
99.9939	-316.8000	-6.7653
100.5938	-316.8000	-6.7630
101.1947	-316.8000	-6.7616
101.7951	-316.8000	-6.7559
102.3959	-316.8000	-6.7540
102.9985	-316.8000	-6.7503
103.6005	-316.8000	-6.7510
104.2019	-316.8000	-6.7467
104.8037	-316.8000	-6.7424
105.4047	-316.8000	-6.7420
106.0067	-316.8000	-6.7423
106.6073	-316.8000	-6.7345
107.2091	-316.8000	-6.7327
107.8086	-316.8000	-6.7341
108.4110	-316.8000	-6.7312
109.0117	-316.8000	-6.7289
109.6128	-316.8000	-6.7307
110.2141	-316.8000	-6.7222
110.8147	-316.8000	-6.7219
111.4179	-316.8000	-6.7180
112.0199	-316.8000	-6.7178
112.6210	-316.8000	-6.7145
113.2219	-316.8000	-6.7156
113.8252	-316.8000	-6.7103
114.4265	-316.8000	-6.7093
115.0285	-316.8000	-6.7087
115.6313	-316.8000	-6.7046
116.2316	-316.8000	-6.7036
116.8341	-316.8000	-6.7019
117.4359	-316.8000	-6.7004
118.0376	-316.8000	-6.6993
118.6385	-316.8000	-6.6946
119.2440	-316.8000	-6.6955
119.8459	-316.8000	-6.6925
120.4486	-316.8000	-6.6928
121.0507	-316.8000	-6.6884
121.6515	-316.8000	-6.6844
122.2529	-316.8000	-6.6864
122.8541	-316.8000	-6.6859
123.4541	-316.8000	-6.6831
124.0542	-316.8000	-6.6834
124.6560	-316.8000	-6.6821
125.2580	-316.8000	-6.6819
125.8589	-316.8000	-6.6764
126.4596	-316.8000	-6.6780
127.0625	-316.8000	-6.6757
127.6639	-316.8000	-6.6709
128.2664	-316.8000	-6.6698
128.8681	-316.8000	-6.6690
129.4691	-316.8000	-6.6660
130.0696	-316.8000	-6.6651
130.6702	-316.8000	-6.6664
131.2703	-316.8000	-6.6612
131.8718	-316.8000	-6.6556
132.4727	-316.8000	-6.6533
133.0741	-316.8000	-6.6545
133.6740	-316.8000	-6.6567
134.2760	-316.8000	-6.6488
134.8767	-316.8000	-6.6519
135.4786	-316.8000	-6.6513
136.0809	-316.8000	-6.6557
136.6817	-316.8000	-6.6477
137.2836	-316.8000	-6.6466
137.8843	-316.8000	-6.6483
138.4843	-316.8000	-6.6432
139.0854	-316.8000	-6.6359
139.6869	-316.8000	-6.6378
140.2903	-316.8000	-6.6353
140.8947	-316.8000	-6.6361
141.4964	-316.8000	-6.6358
142.0968	-316.8000	-6.6329
142.6971	-316.8000	-6.6359
143.2979	-316.8000	-6.6314
143.8987	-316.8000	-6.6317
144.5015	-316.8000	-6.6259
145.1020	-316.8000	-6.6281
145.7040	-316.8000	-6.6262
146.3048	-316.8000	-6.6221
146.9070	-316.8000	-6.6224
147.5095	-316.8000	-6.6247
148.1102	-316.8000	-6.6199
148.7133	-316.8000	-6.6185
149.3142	-316.8000	-6.6166
149.9145	-316.8000	-6.6191
150.5153	-316.8000	-6.6154
151.1163	-316.8000	-6.6147
151.7171	-316.8000	-6.6148
152.3170	-316.8000	-6.6096
152.9184	-316.8000	-6.6098
153.5202	-316.8000	-6.6145
154.1261	-316.8000	-6.6131
154.7273	-316.8000	-6.6059
155.3289	-316.8000	-6.6074
155.9309	-316.8000	-6.6019
156.5319	-316.8000	-6.6035
157.1349	-316.8000	-6.6028
157.7359	-316.8000	-6.6003
158.3377	-316.8000	-6.5981
158.9380	-316.8000	-6.6012
159.5415	-316.8000	-6.5959
160.1422	-316.8000	-6.5981
160.7442	-316.8000	-6.5982
161.3440	-316.8000	-6.5931
161.9461	-316.8000	-6.5918
162.5497	-316.8000	-6.5907
163.1703	-314.2330	-6.5916
163.7738	-310.2340	-1.2926
164.3744	-306.2340	0.7602
164.9743	-302.2010	1.3259
165.5756	-298.2000	1.4225
166.1773	-294.2010	1.3822
166.7769	-290.1970	1.3176
167.3777	-286.1960	1.2654
167.9797	-282.1970	1.2211
168.5824	-278.1630	1.1905
169.1842	-274.1640	1.1726
169.7840	-270.1630	1.1542
170.3847	-266.7990	1.1472
170.9859	-266.7990	1.1487
171.5869	-266.8000	1.1552
172.1885	-266.8000	1.1579
172.7909	-266.8000	1.1525
173.3904	-266.8000	1.1485
173.9929	-266.8000	1.1496
174.5923	-266.8000	1.1502
175.1966	-266.8000	1.1479
175.7972	-266.8000	1.1489
176.3997	-266.8000	1.1507
177.0023	-266.8000	1.1519
177.6047	-266.8000	1.1512
178.2048	-266.8000	1.1479
178.8051	-266.8000	1.1498
179.4078	-266.8000	1.1542
179.6081	-266.8000	1.1511