File: Tinius-Olsen_Levitation_force/Measurements/20231204_1644GDBCOs2_sl6_2.txt
4/12/2023 4:44:02 pm
Time(s)	Displacement(mm)	Force(N)
0.0000	-266.9620	1.1273
1.0251	-273.3660	1.1468
2.0281	-280.0670	1.1693
3.0294	-286.7350	1.2075
4.0319	-293.4390	1.2506
5.0358	-300.1390	1.2240
6.0421	-306.8370	0.6366
7.0456	-313.5050	-2.8299
8.0485	-316.8010	-7.0249
9.0534	-316.8000	-6.9281
10.0595	-316.8000	-6.8826
11.0596	-316.8000	-6.8530
12.0617	-316.8000	-6.8285
13.0656	-316.8000	-6.8099
14.0713	-316.8000	-6.7985
15.0768	-316.8000	-6.7860
16.0774	-316.8000	-6.7741
17.0789	-316.8000	-6.7695
18.0805	-316.8000	-6.7549
19.0828	-316.8000	-6.7452
20.0851	-316.8000	-6.7384
21.0899	-316.8000	-6.7302
22.0938	-316.8000	-6.7274
23.0968	-316.8000	-6.7179
24.0983	-316.8000	-6.7119
25.0990	-316.8000	-6.7100
26.0998	-316.8000	-6.7020
27.1010	-316.8000	-6.6995
28.1018	-316.8000	-6.6920
29.1039	-316.8000	-6.6891
30.1060	-316.8000	-6.6844
31.1092	-316.8000	-6.6790
32.1108	-316.8000	-6.6753
33.1130	-316.8000	-6.6708
34.1203	-316.8000	-6.6653
35.1207	-316.8000	-6.6635
36.1220	-316.8000	-6.6596
37.1221	-316.8000	-6.6544
38.1224	-316.8000	-6.6537
39.1248	-316.8000	-6.6438
40.1247	-316.8000	-6.6440
41.1279	-316.8000	-6.6402
42.1299	-316.8000	-6.6368
43.1313	-316.8000	-6.6348
44.1329	-316.8000	-6.6326
45.1358	-316.8000	-6.6280
46.1379	-316.8000	-6.6276
47.1395	-316.8000	-6.6238
48.1408	-316.8000	-6.6205
49.1419	-316.8000	-6.6185
50.1451	-316.8000	-6.6144
51.1458	-316.8000	-6.6128
52.1483	-316.8000	-6.6119
53.1479	-316.8000	-6.6051
54.1518	-316.8000	-6.6019
55.1538	-316.8000	-6.6028
56.1552	-316.8000	-6.6017
57.1566	-316.8000	-6.5954
58.1597	-316.8000	-6.5938
59.1641	-316.8000	-6.5965
60.1654	-316.8000	-6.5895
61.1690	-316.8000	-6.5877
62.1713	-316.8000	-6.5802
63.1734	-316.8000	-6.5801
64.1746	-316.8000	-6.5831
65.1767	-316.8000	-6.5791
66.1797	-316.8000	-6.5776
67.1804	-316.8000	-6.5777
68.1822	-316.8000	-6.5722
69.1827	-316.8000	-6.5725
70.1840	-316.8000	-6.5692
71.1866	-316.8000	-6.5665
72.1891	-316.8000	-6.5655
73.1919	-316.8000	-6.5607
74.1957	-316.8000	-6.5633
75.1970	-316.8000	-6.5578
76.1988	-316.8000	-6.5567
77.2016	-316.8000	-6.5561
78.2038	-316.8000	-6.5553
79.2055	-316.8000	-6.5525
80.2064	-316.8000	-6.5516
81.2084	-316.8000	-6.5485
82.2128	-316.8000	-6.5472
83.2171	-316.8000	-6.5452
84.2207	-316.8000	-6.5430
85.2236	-316.8000	-6.5397
86.2267	-316.8000	-6.5393
87.2264	-316.8000	-6.5377
88.2280	-316.8000	-6.5368
89.2290	-316.8000	-6.5331
90.2300	-316.8000	-6.5359
91.2329	-316.8000	-6.5313
92.2333	-316.8000	-6.5319
93.2362	-316.8000	-6.5280
94.2363	-316.8000	-6.5266
95.2403	-316.8000	-6.5253
96.2429	-316.8000	-6.5260
97.2429	-316.8000	-6.5222
98.2434	-316.8000	-6.5211
99.2470	-316.8000	-6.5200
100.2485	-316.8000	-6.5141
101.2527	-316.8000	-6.5168
102.2533	-316.8000	-6.5175
103.2544	-316.8000	-6.5100
104.2572	-316.8000	-6.5110
105.2604	-316.8000	-6.5082
106.2626	-316.8000	-6.5094
107.2634	-316.8000	-6.5076
108.2647	-316.8000	-6.5078
109.2669	-316.8000	-6.5039
110.2683	-316.8000	-6.5075
111.2706	-316.8000	-6.5006
112.2732	-316.8000	-6.4993
113.2743	-316.8000	-6.5001
114.2757	-316.8000	-6.4955
115.2764	-316.8000	-6.4883
116.2798	-316.8000	-6.4954
117.2807	-316.8000	-6.4976
118.2827	-316.8000	-6.4916
119.2843	-316.8000	-6.4931
120.2838	-316.8000	-6.4848
121.2877	-316.8000	-6.4910
122.2907	-316.8000	-6.4864
123.2925	-316.8000	-6.4849
124.2944	-316.8000	-6.4844
125.2980	-316.8000	-6.4839
126.2976	-316.8000	-6.4823
127.3027	-316.8000	-6.4784
128.3052	-316.8000	-6.4822
129.3076	-316.8000	-6.4801
130.3114	-316.8000	-6.4765
131.3108	-316.8000	-6.4757
132.3132	-316.8000	-6.4783
133.3152	-316.8000	-6.4742
134.3178	-316.8000	-6.4756
135.3208	-316.8000	-6.4711
136.3231	-316.8000	-6.4668
137.3273	-316.8000	-6.4666
138.3292	-316.8000	-6.4655
139.3309	-316.8000	-6.4681
140.3328	-316.8000	-6.4651
141.3357	-316.8000	-6.4655
142.3393	-316.8000	-6.4666
143.3394	-316.8000	-6.4621
144.3422	-316.8000	-6.4624
145.3439	-316.8000	-6.4595
146.3495	-316.8000	-6.4578
147.3501	-316.8000	-6.4561
148.3510	-316.8000	-6.4529
149.3580	-316.8000	-6.4560
150.3599	-316.8000	-6.4543
151.3610	-316.8000	-6.4554
152.3646	-316.8000	-6.4527
153.3660	-316.8000	-6.4524
154.3693	-316.8000	-6.4511
155.3710	-316.8000	-6.4482
156.3710	-316.8000	-6.4494
157.3734	-316.8000	-6.4514
158.3744	-316.8000	-6.4474
159.3753	-316.8000	-6.4472
160.3789	-316.8000	-6.4457
161.3812	-316.8000	-6.4410
162.3852	-316.8000	-6.4394
163.3860	-316.8000	-6.4401
164.3867	-316.8000	-6.4388
165.3876	-316.8000	-6.4407
166.3891	-316.8000	-6.4360
167.3921	-316.8000	-6.4399
168.3939	-316.8000	-6.4364
169.3956	-316.8000	-6.4371
170.3963	-316.8000	-6.4344
171.3981	-316.8000	-6.4361
172.3991	-316.8000	-6.4365
173.4020	-316.8000	-6.4352
174.4048	-316.8000	-6.4304
175.4075	-316.8000	-6.4295
176.4093	-316.8000	-6.4311
177.4103	-316.8000	-6.4280
178.4115	-316.8000	-6.4293
179.4150	-316.8000	-6.4278
180.4169	-316.8000	-6.4267
181.4191	-316.8000	-6.4249
182.4199	-316.8000	-6.4242
183.4211	-316.8000	-6.4219
184.4235	-316.8000	-6.4219
185.4241	-316.8000	-6.4183
186.4252	-316.8000	-6.4198
187.4270	-316.8000	-6.4184
188.4279	-316.8000	-6.4170
189.4298	-316.8000	-6.4187
190.4299	-316.8000	-6.4183
191.4330	-316.8000	-6.4193
192.4374	-316.8000	-6.4155
193.4406	-316.8000	-6.4169
194.4410	-316.8000	-6.4105
195.4458	-316.8000	-6.4144
196.4472	-316.8000	-6.4096
197.4494	-316.8000	-6.4135
198.4512	-316.8000	-6.4129
199.4531	-316.8000	-6.4079
200.4573	-316.8000	-6.4093
201.4599	-316.8000	-6.4034
202.4637	-316.8000	-6.4032
203.4635	-316.8000	-6.4006
204.4669	-316.8000	-6.4099
205.4688	-316.8000	-6.4060
206.4700	-316.8000	-6.4064
207.4729	-316.8000	-6.4022
208.4794	-316.8000	-6.4032
209.4794	-316.8000	-6.4044
210.4831	-316.8000	-6.4030
211.4838	-316.8000	-6.3982
212.4852	-316.8000	-6.3995
213.4881	-316.8000	-6.3983
214.4903	-316.8000	-6.3954
215.4963	-316.8000	-6.3997
216.4998	-316.8000	-6.3913
217.4993	-316.8000	-6.3968
218.5013	-316.8000	-6.3929
219.5040	-316.8000	-6.3944
220.5053	-316.8000	-6.3934
221.5093	-316.8000	-6.3927
222.5123	-316.8000	-6.3911
223.5134	-316.8000	-6.3887
224.5140	-316.8000	-6.3887
225.5146	-316.8000	-6.3902
226.5165	-316.8000	-6.3860
227.5182	-316.8000	-6.3872
228.5195	-316.8000	-6.3864
229.5217	-316.8000	-6.3878
230.5235	-316.8000	-6.3858
231.5239	-316.8000	-6.3862
232.5257	-316.8000	-6.3826
233.5278	-316.8000	-6.3861
234.5331	-316.8000	-6.3825
235.5350	-316.8000	-6.3804
236.5375	-316.8000	-6.3798
237.5391	-316.8000	-6.3810
238.5418	-316.8000	-6.3798
239.5417	-316.8000	-6.3734
240.5435	-316.8000	-6.3736
241.5450	-316.8000	-6.3743
242.5463	-316.8000	-6.3743
243.5511	-316.8000	-6.3744
244.5517	-316.8000	-6.3741
245.5518	-316.8000	-6.3731
246.5542	-316.8000	-6.3702
247.5569	-316.8000	-6.3703
248.5605	-316.8000	-6.3684
249.5629	-316.8000	-6.3687
250.5642	-316.8000	-6.3726
251.5642	-316.8000	-6.3730
252.5656	-316.8000	-6.3672
253.5697	-316.8000	-6.3621
254.5707	-316.8000	-6.3719
255.5720	-316.8000	-6.3644
256.5722	-316.8000	-6.3666
257.5720	-316.8000	-6.3637
258.5749	-316.8000	-6.3641
259.5757	-316.8000	-6.3644
260.5814	-316.8000	-6.3600
261.5837	-316.8000	-6.3624
262.5878	-316.8000	-6.3596
263.5898	-316.8000	-6.3617
264.5903	-316.8000	-6.3611
265.5920	-316.8000	-6.3559
266.5938	-316.8000	-6.3560
267.5938	-316.8000	-6.3588
268.5983	-316.8000	-6.3560
269.6021	-316.8000	-6.3541
270.6043	-316.8000	-6.3554
271.6272	-314.8850	-6.3537
272.6292	-308.2200	-0.1354
273.6292	-301.5550	1.4056
274.6301	-294.8870	1.4383
275.6329	-288.1850	1.3187
276.6362	-281.4840	1.2378
277.6391	-274.8190	1.1849
278.6422	-268.1190	1.1634
279.6448	-266.8000	1.1866
280.6480	-266.8000	1.1867
281.4494	-266.8000	1.1842