File: Tinius-Olsen_Levitation_force/Measurements/20231204_1344cut1_highN_2.txt
4/12/2023 1:44:46 pm
Time(s)	Displacement(mm)	Force(N)
0.0000	-281.7970	1.0299
1.2642	-281.7970	1.0368
2.4637	-281.7970	1.0306
3.6658	-281.7970	1.0275
4.8710	-281.7970	1.0250
6.0744	-281.7970	1.0297
7.2987	-281.0000	1.0411
8.4996	-281.0000	1.0336
9.7006	-281.0000	1.0325
10.9039	-281.0000	1.0329
12.1050	-281.0000	1.0315
13.3058	-281.0000	1.0360
14.5082	-281.0000	1.0338
15.7103	-281.0000	1.0379
16.9120	-281.0000	1.0357
18.1169	-281.0000	1.0361
19.3199	-281.0000	1.0371
20.5228	-281.0000	1.0378
21.7249	-281.0000	1.0331
22.9292	-281.0000	1.0340
24.1547	-280.4450	1.0619
25.3568	-280.0000	1.0401
26.5632	-280.0000	1.0376
27.7685	-280.0000	1.0372
28.9713	-280.0000	1.0374
30.1729	-280.0000	1.0460
31.3776	-280.0000	1.0468
32.5795	-280.0000	1.0355
33.7813	-280.0000	1.0456
34.9833	-280.0000	1.0435
36.1845	-280.0000	1.0399
37.3891	-280.0000	1.0392
38.5914	-280.0000	1.0428
39.7925	-280.0000	1.0407
40.9975	-280.0000	1.0433
42.2021	-280.0000	1.0372
43.4051	-280.0000	1.0420
44.6060	-280.0000	1.0383
45.8095	-280.0000	1.0385
47.0118	-280.0000	1.0300
48.2138	-280.0000	1.0420
49.4165	-280.0000	1.0409
50.6195	-280.0000	1.0400
51.8233	-280.0000	1.0375
53.0264	-280.0000	1.0405
54.2277	-280.0000	1.0358
55.4283	-280.0000	1.0380
56.6283	-280.0000	1.0437
57.8315	-280.0000	1.0392
59.0352	-280.0000	1.0448
60.2382	-280.0000	1.0435
61.4394	-280.0000	1.0405
62.6439	-280.0000	1.0400
63.8489	-280.0000	1.0378
65.0518	-280.0000	1.0402
66.2521	-280.0000	1.0469
67.4531	-280.0000	1.0470
68.6539	-280.0000	1.0409
69.8565	-280.0000	1.0357
71.0584	-280.0000	1.0319
72.2587	-280.0000	1.0446
73.4598	-280.0000	1.0350
74.6617	-280.0000	1.0397
75.8675	-280.0000	1.0470
77.0711	-280.0000	1.0533
78.2735	-280.0000	1.0376
79.4762	-280.0000	1.0465
80.6772	-280.0000	1.0458
81.8776	-280.0000	1.0414
83.0826	-280.0000	1.0386
84.2868	-280.0000	1.0484
85.4896	-280.0000	1.0491
86.6912	-280.0000	1.0479
87.8940	-280.0000	1.0182
89.0959	-280.0000	1.0529
90.2990	-280.0000	1.0474
91.5015	-280.0000	1.0294
92.7027	-280.0000	1.0288
93.9029	-280.0000	1.0349
95.1050	-280.0000	1.0466
96.3063	-280.0000	1.0278
97.5082	-280.0000	1.0301
98.7100	-280.0000	1.0305
99.9122	-280.0000	1.0379
101.1150	-280.0000	1.0335
102.3160	-280.0000	1.0469
103.5179	-280.0000	1.0357
104.7201	-280.0000	1.0656
105.9237	-280.0000	1.0600
107.1246	-280.0000	1.0400
108.3281	-280.0000	1.0446
109.5301	-280.0000	1.0379
110.7302	-280.0000	1.0267
111.9311	-280.0000	1.0293
113.1361	-280.0000	1.0539
114.3385	-280.0000	1.0538
115.5402	-280.0000	1.0501
116.7640	-285.2450	1.0068
117.9681	-293.2780	0.9147
119.1744	-301.3150	0.6810
120.3802	-309.3470	-0.2385
121.5825	-316.8020	-3.4965
122.7827	-316.8000	-3.2177
123.9850	-316.8000	-3.0126
125.1866	-316.8000	-2.9075
126.3900	-316.8000	-2.8259
127.5902	-316.8000	-2.7762
128.7915	-316.8000	-2.7414
129.9977	-316.8000	-2.6933
131.2004	-316.8000	-2.6657
132.4056	-316.8000	-2.6455
133.6082	-316.8000	-2.6218
134.8134	-316.8000	-2.6027
136.0151	-316.8000	-2.5753
137.2174	-316.8000	-2.5760
138.4184	-316.8000	-2.5553
139.6226	-316.8000	-2.5362
140.8227	-316.8000	-2.5269
142.0247	-316.8000	-2.5175
143.2313	-316.8000	-2.4982
144.4343	-316.8000	-2.4914
145.6359	-316.8000	-2.4827
146.8392	-316.8000	-2.4718
148.0403	-316.8000	-2.4624
149.2459	-316.8000	-2.4521
150.4502	-316.8000	-2.4482
151.6514	-316.8000	-2.4442
152.8514	-316.8000	-2.4309
154.0528	-316.8000	-2.4246
155.2560	-316.8000	-2.4214
156.4569	-316.8000	-2.4150
157.6613	-316.8000	-2.4053
158.8638	-316.8000	-2.3998
160.0690	-316.8000	-2.3961
161.2725	-316.8000	-2.3909
162.4746	-316.8000	-2.3838
163.6762	-316.8000	-2.3733
164.8783	-316.8000	-2.3688
166.0809	-316.8000	-2.3699
167.2858	-316.8000	-2.3675
168.4870	-316.8000	-2.3564
169.6881	-316.8000	-2.3564
170.8896	-316.8000	-2.3489
172.0909	-316.8000	-2.3434
173.2909	-316.8000	-2.3411
174.4947	-316.8000	-2.3338
175.6983	-316.8000	-2.3309
176.8995	-316.8000	-2.3292
178.1022	-316.8000	-2.3236
179.3041	-316.8000	-2.3164
180.5078	-316.8000	-2.3176
181.7108	-316.8000	-2.3115
182.9127	-316.8000	-2.3128
184.1131	-316.8000	-2.3068
185.3159	-316.8000	-2.3033
186.5218	-316.8000	-2.3013
187.7257	-316.8000	-2.2953
188.9292	-316.8000	-2.2961
190.1304	-316.8000	-2.2900
191.3328	-316.8000	-2.2907
192.5348	-316.8000	-2.2855
193.7355	-316.8000	-2.2824
194.9368	-316.8000	-2.2800
196.1391	-316.8000	-2.2766
197.3410	-316.8000	-2.2737
198.5458	-316.8000	-2.2689
199.7487	-316.8000	-2.2694
200.9488	-316.8000	-2.2680
202.1511	-316.8000	-2.2648
203.3535	-316.8000	-2.2649
204.5544	-316.8000	-2.2619
205.7590	-316.8000	-2.2576
206.9636	-316.8000	-2.2549
208.1672	-316.8000	-2.2509
209.3710	-316.8000	-2.2529
210.5717	-316.8000	-2.2509
211.7735	-316.8000	-2.2431
212.9769	-316.8000	-2.2440
214.1785	-316.8000	-2.2406
215.3799	-316.8000	-2.2388
216.5813	-316.8000	-2.2361
217.7844	-316.8000	-2.2338
218.9852	-316.8000	-2.2307
220.1901	-316.8000	-2.2299
221.3934	-316.8000	-2.2298
222.5962	-316.8000	-2.2231
223.7994	-316.8000	-2.2235
225.0013	-316.8000	-2.2196
226.2083	-316.8000	-2.2201
227.4105	-316.8000	-2.2166
228.6115	-316.8000	-2.2171
229.8134	-316.8000	-2.2165
231.0133	-316.8000	-2.2104
232.2162	-316.8000	-2.2129
233.4184	-316.8000	-2.2075
234.6225	-316.8000	-2.2087
235.8252	-316.8000	-2.2073
237.0274	-316.8000	-2.2056
238.2286	-316.8000	-2.2043
239.4315	-316.8000	-2.2022
240.6353	-316.8000	-2.2013
241.8364	-316.8000	-2.2033
243.0392	-316.8000	-2.1960
244.2387	-316.8000	-2.1953
245.4416	-316.8000	-2.1922
246.6425	-316.8000	-2.1910
247.8463	-316.8000	-2.1901
249.0492	-316.8000	-2.1900
250.2501	-316.8000	-2.1840
251.4512	-316.8000	-2.1876
252.6545	-316.8000	-2.1837
253.8565	-316.8000	-2.1784
255.0615	-316.8000	-2.1811
256.2632	-316.8000	-2.1779
257.4687	-316.8000	-2.1794
258.6691	-316.8000	-2.1778
259.8717	-316.8000	-2.1778
261.0767	-316.8000	-2.1724
262.2785	-316.8000	-2.1715
263.4817	-316.8000	-2.1734
264.6841	-316.8000	-2.1678
265.8846	-316.8000	-2.1657
267.0885	-316.8000	-2.1666
268.2917	-316.8000	-2.1653
269.4952	-316.8000	-2.1649
270.6967	-316.8000	-2.1664
271.9001	-316.8000	-2.1602
273.1017	-316.8000	-2.1604
274.3043	-316.8000	-2.1583
275.5043	-316.8000	-2.1619
276.7038	-316.8000	-2.1586
277.9071	-316.8000	-2.1568
279.1101	-316.8000	-2.1565
280.3119	-316.8000	-2.1531
281.5169	-316.8000	-2.1518
282.7214	-316.8000	-2.1510
283.9221	-316.8000	-2.1513
285.1239	-316.8000	-2.1501
286.3274	-316.8000	-2.1474
287.5326	-316.8000	-2.1469
288.7377	-316.8000	-2.1470
289.9374	-316.8000	-2.1469
291.1415	-316.8000	-2.1444
292.3438	-316.8000	-2.1431
293.5464	-316.8000	-2.1421
294.7520	-316.8000	-2.1390
295.9558	-316.8000	-2.1418
297.1566	-316.8000	-2.1382
298.3575	-316.8000	-2.1382
299.5610	-316.8000	-2.1363
300.7669	-316.8000	-2.1335
301.9730	-316.8000	-2.1373
303.1745	-316.8000	-2.1316
304.3775	-316.8000	-2.1296
305.5797	-316.8000	-2.1308
306.7814	-316.8000	-2.1300
307.9822	-316.8000	-2.1290
309.1871	-316.8000	-2.1284
310.3922	-316.8000	-2.1294
311.6002	-316.8000	-2.1253
312.8016	-316.8000	-2.1251
314.0060	-316.8000	-2.1224
315.2108	-316.8000	-2.1197
316.4117	-316.8000	-2.1206
317.6141	-316.8000	-2.1226
318.8161	-316.8000	-2.1188
320.0196	-316.8000	-2.1156
321.2235	-316.8000	-2.1168
322.4273	-316.8000	-2.1171
323.6301	-316.8000	-2.1152
324.8334	-316.8000	-2.1158
326.0346	-316.8000	-2.1149
327.2377	-316.8000	-2.1149
328.4388	-316.8000	-2.1159
329.6401	-316.8000	-2.1151
330.8462	-316.8000	-2.1094
332.0503	-316.8000	-2.1101
333.2546	-316.8000	-2.1086
334.4594	-316.8000	-2.1097
335.6615	-316.8000	-2.1080
336.8647	-316.8000	-2.1072
338.0683	-316.8000	-2.1103
339.2702	-316.8000	-2.1077
340.4724	-316.8000	-2.1054
341.6753	-316.8000	-2.1057
342.8770	-316.8000	-2.1036
344.0778	-316.8000	-2.1025
345.2788	-316.8000	-2.1005
346.3804	-316.8000	-2.1002