File: Tinius-Olsen_Levitation_force/Measurements/20231204_1434YBCOs1_sl9_1.txt
4/12/2023 2:34:49 pm
Time(s)	Displacement(mm)	Force(N)
0.0000	-276.6000	1.1037
0.4456	-276.6000	1.0986
0.8463	-276.6000	1.1023
1.2478	-276.6000	1.1039
1.6480	-276.6000	1.1001
2.0477	-276.6000	1.1004
2.4482	-276.6000	1.1006
2.8477	-276.6000	1.1026
3.2493	-276.6000	1.1049
3.6524	-276.6000	1.1041
4.0550	-276.6000	1.1049
4.4562	-276.6000	1.1058
4.8576	-276.6000	1.1056
5.2579	-276.6000	1.1056
5.6583	-276.6000	1.1022
6.0600	-276.6000	1.1050
6.4615	-276.6000	1.1048
6.8618	-276.6000	1.1024
7.2620	-276.6000	1.1078
7.6619	-276.6000	1.1090
8.0623	-276.6000	1.1038
8.4634	-276.6000	1.1099
8.8642	-276.6000	1.1040
9.2643	-276.6000	1.1058
9.6663	-276.6000	1.1016
10.0660	-276.6000	1.1055
10.4657	-276.6000	1.1023
10.8674	-276.6000	1.1094
11.2679	-276.6000	1.0952
11.6698	-276.6000	1.0947
12.0719	-276.6000	1.0991
12.4939	-276.0000	1.1258
12.8942	-276.0000	1.1162
13.2953	-276.0000	1.1160
13.6957	-276.0000	1.1163
14.0968	-276.0000	1.1123
14.4985	-276.0000	1.1151
14.8997	-276.0000	1.1249
15.3019	-276.0000	1.1131
15.7021	-276.0000	1.1138
16.1016	-276.0000	1.1171
16.5038	-276.0000	1.1154
16.9054	-276.0000	1.1166
17.3067	-276.0000	1.1123
17.7077	-276.0000	1.1152
18.1104	-276.1630	1.1165
18.5327	-278.5620	1.0748
18.9334	-280.0010	1.0625
19.3341	-280.0010	1.0681
19.7374	-280.0000	1.0638
20.1380	-280.0000	1.0665
20.5379	-280.0000	1.0593
20.9375	-280.0000	1.0538
21.3404	-280.0000	1.0519
21.7405	-280.0000	1.0717
22.1414	-280.0000	1.0657
22.5410	-280.0000	1.0705
22.9420	-280.0000	1.0575
23.3430	-280.0000	1.0601
23.7432	-280.0000	1.0570
24.1430	-280.0000	1.0667
24.5435	-280.0000	1.0697
24.9446	-280.0000	1.0650
25.3458	-280.0000	1.0520
25.7456	-280.0000	1.0610
26.1458	-280.0000	1.0519
26.5476	-280.0000	1.0698
26.9497	-280.0000	1.0610
27.3503	-280.0000	1.0646
27.7502	-280.0000	1.0512
28.1523	-280.0000	1.0621
28.5530	-280.0000	1.0601
28.9529	-280.0000	1.0568
29.3535	-280.0000	1.0611
29.7530	-280.0000	1.0585
30.1547	-280.0000	1.0613
30.5559	-280.0000	1.0640
30.9559	-280.0000	1.0622
31.3559	-280.0000	1.0636
31.7559	-280.0000	1.0728
32.1559	-280.0000	1.0716
32.5782	-281.9070	1.0520
32.9798	-284.5740	1.0266
33.3834	-287.2740	1.0065
33.7838	-289.9400	0.9789
34.1838	-292.6070	0.9553
34.5855	-295.2730	0.9125
34.9852	-297.9380	0.8627
35.3860	-300.6050	0.7860
35.7859	-303.2710	0.6799
36.1859	-305.9370	0.5610
36.5881	-308.6370	0.3871
36.9900	-311.3030	0.1570
37.3905	-314.0030	-0.1636
37.7917	-315.6410	-0.4057
38.1935	-315.6410	-0.1653
38.5944	-315.6400	-0.1189
38.9939	-315.6400	-0.0872
39.3945	-315.6400	-0.0681
39.7959	-315.6400	-0.0549
40.1982	-315.6400	-0.0388
40.5992	-315.6400	-0.0308
41.0011	-315.6400	-0.0254
41.4020	-315.6400	-0.0121
41.8033	-315.6400	-0.0051
42.2036	-315.6400	0.0009
42.6036	-315.6400	0.0057
43.0054	-315.6400	0.0081
43.4053	-315.6400	0.0146
43.8060	-315.6400	0.0223
44.2062	-315.6400	0.0237
44.6080	-315.6400	0.0265
45.0089	-315.6400	0.0294
45.4104	-315.6400	0.0322
45.8105	-315.6400	0.0305
46.2111	-315.6400	0.0430
46.6113	-315.6400	0.0365
47.0113	-315.6400	0.0463
47.4119	-315.6400	0.0488
47.8126	-315.6400	0.0557
48.2119	-315.6400	0.0478
48.6128	-315.6400	0.0455
49.0144	-315.6400	0.0611
49.4152	-315.6400	0.0595
49.8160	-315.6400	0.0566
50.2159	-315.6400	0.0643
50.6174	-315.6400	0.0623
51.0197	-315.6400	0.0614
51.4188	-315.6400	0.0737
51.8188	-315.6400	0.0757
52.2208	-315.6400	0.0719
52.6247	-315.6400	0.0680
53.0267	-315.6400	0.0760
53.4261	-315.6400	0.0781
53.8282	-315.6400	0.0797
54.2284	-315.6400	0.0726
54.6283	-315.6400	0.0715
55.0286	-315.6400	0.0776
55.4284	-315.6400	0.0818
55.8279	-315.6400	0.0920
56.2279	-315.6400	0.0772
56.6280	-315.6400	0.0927
57.0306	-315.6400	0.0824
57.4318	-315.6400	0.0839
57.8315	-315.6400	0.0907
58.2315	-315.6400	0.0926
58.6323	-315.6400	0.0996
59.0344	-315.6400	0.0912
59.4362	-315.6400	0.0959
59.8370	-315.6400	0.0934
60.2387	-315.6400	0.0960
60.6398	-315.6400	0.1019
61.0413	-315.6400	0.0959
61.4414	-315.6400	0.0892
61.8437	-315.6400	0.1000
62.2439	-315.6400	0.1008
62.6449	-315.6400	0.0994
63.0463	-315.6400	0.1013
63.4463	-315.6400	0.1026
63.8477	-315.6400	0.1023
64.2483	-315.6400	0.1064
64.6498	-315.6400	0.1030
65.0506	-315.6400	0.1028
65.4520	-315.6400	0.1070
65.8521	-315.6400	0.1081
66.2522	-315.6400	0.1084
66.6523	-315.6400	0.1125
67.0521	-315.6400	0.1114
67.4539	-315.6400	0.1115
67.8539	-315.6400	0.1126
68.2545	-315.6400	0.1123
68.6566	-315.6400	0.1171
69.0560	-315.6400	0.1118
69.4563	-315.6400	0.1139
69.8573	-315.6400	0.1164
70.2588	-315.6400	0.1148
70.6586	-315.6400	0.1164
71.0594	-315.6400	0.1168
71.4607	-315.6400	0.1173
71.8603	-315.6400	0.1225
72.2617	-315.6400	0.1209
72.6622	-315.6400	0.1168
73.0642	-315.6400	0.1253
73.4661	-315.6400	0.1219
73.8664	-315.6400	0.1183
74.2663	-315.6400	0.1233
74.6662	-315.6400	0.1216
75.0664	-315.6400	0.1209
75.4663	-315.6400	0.1230
75.8672	-315.6400	0.1258
76.2673	-315.6400	0.1223
76.6683	-315.6400	0.1226
77.0683	-315.6400	0.1254
77.4698	-315.6400	0.1257
77.8704	-315.6400	0.1281
78.2714	-315.6400	0.1315
78.6724	-315.6400	0.1273
79.0713	-315.6400	0.1281
79.4729	-315.6400	0.1271
79.8742	-315.6400	0.1302
80.2756	-315.6400	0.1317
80.6759	-315.6400	0.1298
81.0764	-315.6400	0.1351
81.4779	-315.6400	0.1302
81.8786	-315.6400	0.1310
82.2785	-315.6400	0.1341
82.6786	-315.6400	0.1337
83.0799	-315.6400	0.1356
83.4799	-315.6400	0.1370
83.8804	-315.6400	0.1341
84.2824	-315.6400	0.1355
84.6849	-315.6400	0.1341
85.0844	-315.6400	0.1386
85.4863	-315.6400	0.1364
85.8875	-315.6400	0.1387
86.2876	-315.6400	0.1348
86.6873	-315.6400	0.1373
87.0890	-315.6400	0.1315
87.4888	-315.6400	0.1375
87.8887	-315.6400	0.1383
88.2889	-315.6400	0.1465
88.6888	-315.6400	0.1488
89.0889	-315.6400	0.1418
89.4886	-315.6400	0.1369
89.8895	-315.6400	0.1323
90.2907	-315.6400	0.1491
90.6921	-315.6400	0.1443
91.0917	-315.6400	0.1439
91.4932	-315.6400	0.1481
91.8961	-315.6400	0.1440
92.2979	-315.6400	0.1447
92.6991	-315.6400	0.1473
93.0989	-315.6400	0.1445
93.4998	-315.6400	0.1431
93.8993	-315.6400	0.1443
94.2998	-315.6400	0.1422
94.7012	-315.6400	0.1429
95.1018	-315.6400	0.1472
95.5042	-315.6400	0.1469
95.9037	-315.6400	0.1445
96.3053	-315.6400	0.1486
96.7074	-315.6400	0.1523
97.1075	-315.6400	0.1450
97.5115	-315.6400	0.1445
97.9151	-315.6400	0.1557
98.3143	-315.6400	0.1571
98.7146	-315.6400	0.1493
99.1144	-315.6400	0.1539
99.5156	-315.6400	0.1490
99.9172	-315.6400	0.1473
100.3166	-315.6400	0.1523
100.7166	-315.6400	0.1555
101.1166	-315.6400	0.1502
101.5166	-315.6400	0.1531
101.9166	-315.6400	0.1496
102.3165	-315.6400	0.1559
102.7175	-315.6400	0.1557
103.1197	-315.6400	0.1530
103.5229	-315.6400	0.1519
103.9260	-315.6400	0.1498
104.3268	-315.6400	0.1502
104.7285	-315.6400	0.1539
105.1286	-315.6400	0.1513
105.5296	-315.6400	0.1580
105.9307	-315.6400	0.1537
106.3327	-315.6400	0.1531
106.7327	-315.6400	0.1557
107.1335	-315.6400	0.1530
107.5343	-315.6400	0.1559
107.9346	-315.6400	0.1534
108.3365	-315.6400	0.1552