File: Tinius-Olsen_Levitation_force/Measurements/20231204_1651GDBCOs2_sl6_4.txt
4/12/2023 4:51:06 pm
Time(s)	Displacement(mm)	Force(N)
0.0000	-266.9580	1.1887
0.5220	-270.0430	1.1583
1.0225	-273.3580	1.1661
1.5245	-276.7080	1.1728
2.0259	-280.0580	1.1870
2.5267	-283.4080	1.1993
3.0285	-286.7570	1.2300
3.5309	-290.0720	1.2494
4.0330	-293.4240	1.2824
4.5352	-296.7740	1.2976
5.0390	-300.1580	1.2768
5.5390	-303.4760	1.1376
6.0422	-306.8300	0.7432
6.5438	-310.1800	-0.2764
7.0436	-313.4960	-2.6033
7.5441	-316.7790	-6.9477
8.0443	-316.8000	-6.7715
8.5461	-316.8000	-6.7098
9.0490	-316.8000	-6.6735
9.5496	-316.8000	-6.6529
10.0501	-316.8000	-6.6368
10.5515	-316.8000	-6.6216
11.0517	-316.8000	-6.6092
11.5527	-316.8000	-6.5918
12.0527	-316.8000	-6.5864
12.5530	-316.8000	-6.5786
13.0551	-316.8000	-6.5716
13.5552	-316.8000	-6.5638
14.0572	-316.8000	-6.5509
14.5571	-316.8000	-6.5446
15.0572	-316.8000	-6.5392
15.5571	-316.8000	-6.5346
16.0576	-316.8000	-6.5291
16.5590	-316.8000	-6.5305
17.0610	-316.8000	-6.5280
17.5626	-316.8000	-6.5212
18.0645	-316.8000	-6.5158
18.5666	-316.8000	-6.5111
19.0698	-316.8000	-6.5090
19.5730	-316.8000	-6.5052
20.0733	-316.8000	-6.5026
20.5744	-316.8000	-6.4960
21.0761	-316.8000	-6.4971
21.5783	-316.8000	-6.4988
22.0789	-316.8000	-6.4931
22.5782	-316.8000	-6.4894
23.0815	-316.8000	-6.4887
23.5845	-316.8000	-6.4845
24.0846	-316.8000	-6.4795
24.5869	-316.8000	-6.4818
25.0885	-316.8000	-6.4771
25.5900	-316.8000	-6.4758
26.0934	-316.8000	-6.4747
26.5958	-316.8000	-6.4730
27.0980	-316.8000	-6.4725
27.6020	-316.8000	-6.4693
28.1032	-316.8000	-6.4670
28.6074	-316.8000	-6.4614
29.1069	-316.8000	-6.4637
29.6099	-316.8000	-6.4613
30.1126	-316.8000	-6.4648
30.6140	-316.8000	-6.4589
31.1145	-316.8000	-6.4592
31.6153	-316.8000	-6.4553
32.1180	-316.8000	-6.4550
32.6202	-316.8000	-6.4534
33.1201	-316.8000	-6.4498
33.6203	-316.8000	-6.4467
34.1218	-316.8000	-6.4483
34.6234	-316.8000	-6.4451
35.1244	-316.8000	-6.4431
35.6263	-316.8000	-6.4433
36.1283	-316.8000	-6.4391
36.6320	-316.8000	-6.4392
37.1358	-316.8000	-6.4388
37.6367	-316.8000	-6.4403
38.1392	-316.8000	-6.4340
38.6417	-316.8000	-6.4311
39.1433	-316.8000	-6.4360
39.6452	-316.8000	-6.4309
40.1446	-316.8000	-6.4311
40.6446	-316.8000	-6.4278
41.1451	-316.8000	-6.4272
41.6447	-316.8000	-6.4286
42.1447	-316.8000	-6.4244
42.6452	-316.8000	-6.4219
43.1453	-316.8000	-6.4198
43.6464	-316.8000	-6.4203
44.1478	-316.8000	-6.4211
44.6517	-316.8000	-6.4193
45.1530	-316.8000	-6.4150
45.6545	-316.8000	-6.4190
46.1563	-316.8000	-6.4177
46.6581	-316.8000	-6.4170
47.1583	-316.8000	-6.4176
47.6585	-316.8000	-6.4146
48.1608	-316.8000	-6.4124
48.6619	-316.8000	-6.4141
49.1623	-316.8000	-6.4130
49.6643	-316.8000	-6.4096
50.1653	-316.8000	-6.4121
50.6683	-316.8000	-6.4038
51.1709	-316.8000	-6.4034
51.6717	-316.8000	-6.4051
52.1749	-316.8000	-6.4084
52.6754	-316.8000	-6.4057
53.1763	-316.8000	-6.4005
53.6784	-316.8000	-6.4017
54.1809	-316.8000	-6.4004
54.6833	-316.8000	-6.4026
55.1827	-316.8000	-6.4014
55.6849	-316.8000	-6.3989
56.1846	-316.8000	-6.3971
56.6868	-316.8000	-6.3994
57.1883	-316.8000	-6.3981
57.6882	-316.8000	-6.3976
58.1896	-316.8000	-6.3965
58.6903	-316.8000	-6.3955
59.1924	-316.8000	-6.3900
59.6943	-316.8000	-6.3909
60.1949	-316.8000	-6.3911
60.6958	-316.8000	-6.3887
61.2005	-316.8000	-6.3909
61.7016	-316.8000	-6.3881
62.2055	-316.8000	-6.3890
62.7045	-316.8000	-6.3900
63.2048	-316.8000	-6.3820
63.7048	-316.8000	-6.3862
64.2059	-316.8000	-6.3832
64.7069	-316.8000	-6.3849
65.2083	-316.8000	-6.3826
65.7096	-316.8000	-6.3804
66.2106	-316.8000	-6.3835
66.7145	-316.8000	-6.3812
67.2165	-316.8000	-6.3800
67.7166	-316.8000	-6.3815
68.2210	-316.8000	-6.3764
68.7226	-316.8000	-6.3795
69.2245	-316.8000	-6.3798
69.7265	-316.8000	-6.3756
70.2272	-316.8000	-6.3777
70.7295	-316.8000	-6.3761
71.2301	-316.8000	-6.3706
71.7313	-316.8000	-6.3759
72.2316	-316.8000	-6.3742
72.7326	-316.8000	-6.3737
73.2332	-316.8000	-6.3765
73.7337	-316.8000	-6.3748
74.2386	-316.8000	-6.3718
74.7380	-316.8000	-6.3695
75.2398	-316.8000	-6.3707
75.7426	-316.8000	-6.3661
76.2435	-316.8000	-6.3706
76.7437	-316.8000	-6.3700
77.2467	-316.8000	-6.3668
77.7486	-316.8000	-6.3692
78.2516	-316.8000	-6.3676
78.7535	-316.8000	-6.3655
79.2541	-316.8000	-6.3651
79.7549	-316.8000	-6.3695
80.2554	-316.8000	-6.3639
80.7567	-316.8000	-6.3652
81.2599	-316.8000	-6.3620
81.7621	-316.8000	-6.3638
82.2640	-316.8000	-6.3625
82.7650	-316.8000	-6.3655
83.2668	-316.8000	-6.3608
83.7670	-316.8000	-6.3575
84.2706	-316.8000	-6.3589
84.7698	-316.8000	-6.3602
85.2715	-316.8000	-6.3605
85.7712	-316.8000	-6.3606
86.2725	-316.8000	-6.3599
86.7746	-316.8000	-6.3591
87.2755	-316.8000	-6.3607
87.7760	-316.8000	-6.3591
88.2773	-316.8000	-6.3556
88.7773	-316.8000	-6.3596
89.2799	-316.8000	-6.3527
89.7816	-316.8000	-6.3533
90.2811	-316.8000	-6.3517
90.7808	-316.8000	-6.3515
91.2826	-316.8000	-6.3529
91.7827	-316.8000	-6.3501
92.2856	-316.8000	-6.3505
92.7860	-316.8000	-6.3510
93.2893	-316.8000	-6.3519
93.7918	-316.8000	-6.3519
94.2945	-316.8000	-6.3490
94.7970	-316.8000	-6.3468
95.2995	-316.8000	-6.3489
95.8024	-316.8000	-6.3475
96.3042	-316.8000	-6.3475
96.8051	-316.8000	-6.3487
97.3059	-316.8000	-6.3490
97.8070	-316.8000	-6.3457
98.3071	-316.8000	-6.3452
98.8073	-316.8000	-6.3450
99.3103	-316.8000	-6.3428
99.8108	-316.8000	-6.3444
100.3119	-316.8000	-6.3456
100.8150	-316.8000	-6.3436
101.3160	-316.8000	-6.3388
101.8187	-316.8000	-6.3462
102.3206	-316.8000	-6.3412
102.8232	-316.8000	-6.3463
103.3252	-316.8000	-6.3376
103.8252	-316.8000	-6.3446
104.3252	-316.8000	-6.3420
104.8276	-316.8000	-6.3391
105.3276	-316.8000	-6.3401
105.8274	-316.8000	-6.3406
106.3293	-316.8000	-6.3358
106.8308	-316.8000	-6.3345
107.3303	-316.8000	-6.3364
107.8312	-316.8000	-6.3339
108.3337	-316.8000	-6.3376
108.8350	-316.8000	-6.3390
109.3366	-316.8000	-6.3386
109.8377	-316.8000	-6.3372
110.3376	-316.8000	-6.3331
110.8382	-316.8000	-6.3368
111.3398	-316.8000	-6.3311
111.8415	-316.8000	-6.3331
112.3425	-316.8000	-6.3330
112.8449	-316.8000	-6.3277
113.3469	-316.8000	-6.3319
113.8476	-316.8000	-6.3334
114.3691	-315.5590	-6.3326
114.8736	-312.2090	-2.0140
115.3745	-308.8590	0.3833
115.8743	-305.5440	1.2209
116.3758	-302.1940	1.4598
116.8753	-298.8790	1.4778
117.3772	-295.5290	1.4289
117.8779	-292.1770	1.3694
118.3798	-288.8250	1.3135
118.8829	-285.4750	1.2680
119.3842	-282.1260	1.2349
119.8867	-278.8100	1.2049
120.3891	-275.4270	1.1827
120.8902	-272.1090	1.1768
121.3930	-268.7590	1.1837
121.8949	-266.7990	1.2218
122.3958	-266.7990	1.2316
122.8963	-266.8000	1.2308
123.3987	-266.8000	1.2293
123.8996	-266.8000	1.2280
124.3997	-266.8000	1.2311
124.9005	-266.8000	1.2304
125.4015	-266.8000	1.2309
125.9019	-266.8000	1.2281
126.4026	-266.8000	1.2269
126.9048	-266.8000	1.2339
127.0046	-266.8000	1.2313