File: Tinius-Olsen_Levitation_force/Measurements/20231204_1536YBCOs1_sl9_3.txt
4/12/2023 3:36:53 pm
Time(s)	Displacement(mm)	Force(N)
0.0000	-267.3350	1.1533
0.8445	-267.3350	1.1577
1.6460	-267.3350	1.1575
2.4480	-267.3350	1.1550
3.2496	-267.3350	1.1554
4.0514	-267.3350	1.1561
4.8508	-267.1990	1.1748
5.6723	-267.0000	1.1595
6.4732	-267.0000	1.1624
7.2737	-267.0000	1.1624
8.0741	-267.0000	1.1599
8.8740	-267.0000	1.1615
9.6740	-267.0000	1.1613
10.4744	-267.0000	1.1632
11.2757	-267.0000	1.1578
12.0792	-267.0000	1.1608
12.8808	-267.0000	1.1667
13.7029	-269.5780	1.1332
14.5079	-270.0000	1.1309
15.3107	-270.0000	1.1303
16.1125	-270.0000	1.1322
16.9138	-270.0000	1.1331
17.7168	-270.0000	1.1340
18.5196	-270.0000	1.1336
19.3238	-270.0000	1.1347
20.1264	-270.0000	1.1331
20.9291	-270.0000	1.1300
21.7320	-270.0000	1.1292
22.5537	-271.8970	1.1201
23.3574	-277.2330	1.1164
24.1594	-282.6010	1.1165
24.9604	-287.9380	1.1054
25.7616	-293.2700	1.0761
26.5619	-298.6040	0.9899
27.3638	-303.9710	0.8074
28.1658	-309.3030	0.4387
28.9701	-314.6710	-0.3066
29.7724	-315.6400	-0.8586
30.5737	-315.6400	-0.7840
31.3740	-315.6400	-0.7462
32.1770	-315.6400	-0.7256
32.9803	-315.6400	-0.7085
33.7818	-315.6400	-0.6918
34.5820	-315.6400	-0.6794
35.3840	-315.6400	-0.6715
36.1852	-315.6400	-0.6623
36.9866	-315.6400	-0.6567
37.7882	-315.6400	-0.6501
38.5909	-315.6400	-0.6451
39.3922	-315.6400	-0.6389
40.1929	-315.6400	-0.6329
40.9941	-315.6400	-0.6291
41.7952	-315.6400	-0.6236
42.5982	-315.6400	-0.6214
43.3980	-315.6400	-0.6162
44.1990	-315.6400	-0.6141
45.0038	-315.6400	-0.6071
45.8039	-315.6400	-0.6061
46.6044	-315.6400	-0.6003
47.4045	-315.6400	-0.5984
48.2068	-315.6400	-0.5911
49.0062	-315.6400	-0.5938
49.8082	-315.6400	-0.5914
50.6119	-315.6400	-0.5915
51.4111	-315.6400	-0.5852
52.2136	-315.6400	-0.5824
53.0141	-315.6400	-0.5811
53.8189	-315.6400	-0.5794
54.6192	-315.6400	-0.5762
55.4202	-315.6400	-0.5742
56.2220	-315.6400	-0.5723
57.0226	-315.6400	-0.5701
57.8227	-315.6400	-0.5690
58.6236	-315.6400	-0.5661
59.4244	-315.6400	-0.5664
60.2274	-315.6400	-0.5625
61.0282	-315.6400	-0.5617
61.8312	-315.6400	-0.5607
62.6327	-315.6400	-0.5560
63.4344	-315.6400	-0.5571
64.2368	-315.6400	-0.5571
65.0363	-315.6400	-0.5530
65.8377	-315.6400	-0.5511
66.6413	-315.6400	-0.5524
67.4422	-315.6400	-0.5510
68.2444	-315.6400	-0.5474
69.0472	-315.6400	-0.5496
69.8498	-315.6400	-0.5465
70.6517	-315.6400	-0.5441
71.4523	-315.6400	-0.5406
72.2543	-315.6400	-0.5400
73.0566	-315.6400	-0.5411
73.8585	-315.6400	-0.5425
74.6596	-315.6400	-0.5387
75.4626	-315.6400	-0.5378
76.2645	-315.6400	-0.5378
77.0666	-315.6400	-0.5367
77.8668	-315.6400	-0.5328
78.6686	-315.6400	-0.5314
79.4696	-315.6400	-0.5304
80.2705	-315.6400	-0.5306
81.0722	-315.6400	-0.5276
81.8734	-315.6400	-0.5281
82.6754	-315.6400	-0.5296
83.4782	-315.6400	-0.5275
84.2798	-315.6400	-0.5282
85.0821	-315.6400	-0.5257
85.8822	-315.6400	-0.5242
86.6841	-315.6400	-0.5238
87.4840	-315.6400	-0.5208
88.2863	-315.6400	-0.5206
89.0860	-315.6400	-0.5197
89.8866	-315.6400	-0.5189
90.6890	-315.6400	-0.5201
91.4918	-315.6400	-0.5178
92.2924	-315.6400	-0.5160
93.0979	-315.6400	-0.5136
93.9016	-315.6400	-0.5148
94.7041	-315.6400	-0.5137
95.5048	-315.6400	-0.5080
96.3088	-315.6400	-0.5134
97.1106	-315.6400	-0.5106
97.9110	-315.6400	-0.5134
98.7129	-315.6400	-0.5084
99.5125	-315.6400	-0.5065
100.3149	-315.6400	-0.5060
101.1169	-315.6400	-0.5068
101.9189	-315.6400	-0.5063
102.7202	-315.6400	-0.5064
103.5215	-315.6400	-0.5061
104.3235	-315.6400	-0.5043
105.1241	-315.6400	-0.5032
105.9236	-315.6400	-0.5031
106.7264	-315.6400	-0.5025
107.5274	-315.6400	-0.5035
108.3287	-315.6400	-0.4985
109.1308	-315.6400	-0.4998
109.9333	-315.6400	-0.5011
110.7330	-315.6400	-0.5032
111.5348	-315.6400	-0.5001
112.3356	-315.6400	-0.4977
113.1385	-315.6400	-0.4978
113.9424	-315.6400	-0.4980
114.7418	-315.6400	-0.4990
115.5450	-315.6400	-0.4961
116.3470	-315.6400	-0.4941
117.1470	-315.6400	-0.4922
117.9476	-315.6400	-0.4917
118.7492	-315.6400	-0.4943
119.5520	-315.6400	-0.4899
120.3534	-315.6400	-0.4932
121.1564	-315.6400	-0.4939
121.9567	-315.6400	-0.4952
122.7577	-315.6400	-0.4894
123.5585	-315.6400	-0.4917
124.3595	-315.6400	-0.4903
125.1638	-315.6400	-0.4907
125.9666	-315.6400	-0.4910
126.7694	-315.6400	-0.4874
127.5737	-315.6400	-0.4850
128.3798	-315.6400	-0.4858
129.1829	-315.6400	-0.4886
129.9844	-315.6400	-0.4885
130.7848	-315.6400	-0.4887
131.5848	-315.6400	-0.4854
132.3849	-315.6400	-0.4854
133.1855	-315.6400	-0.4849
133.9885	-315.6400	-0.4814
134.7890	-315.6400	-0.4803
135.5908	-315.6400	-0.4816
136.3988	-315.6400	-0.4811
137.2016	-315.6400	-0.4808
138.0018	-315.6400	-0.4808
138.8022	-315.6400	-0.4786
139.6033	-315.6400	-0.4780
140.4040	-315.6400	-0.4802
141.2052	-315.6400	-0.4782
142.0087	-315.6400	-0.4767
142.8109	-315.6400	-0.4769
143.6146	-315.6400	-0.4738
144.4171	-315.6400	-0.4759
145.2192	-315.6400	-0.4727
146.0208	-315.6400	-0.4751
146.8230	-315.6400	-0.4722
147.6253	-315.6400	-0.4753
148.4252	-315.6400	-0.4727
149.2284	-315.6400	-0.4723
150.0324	-315.6400	-0.4717
150.8349	-315.6400	-0.4702
151.6379	-315.6400	-0.4705
152.4389	-315.6400	-0.4710
153.2411	-315.6400	-0.4710
154.0416	-315.6400	-0.4685
154.8413	-315.6400	-0.4719
155.6438	-315.6400	-0.4712
156.4474	-315.6400	-0.4691
157.2471	-315.6400	-0.4723
158.0491	-315.6400	-0.4683
158.8530	-315.6400	-0.4666
159.6548	-315.6400	-0.4693
160.4553	-315.6400	-0.4676
161.2570	-315.6400	-0.4669
162.0571	-315.6400	-0.4645
162.8571	-315.6400	-0.4615
163.6599	-315.6400	-0.4649
164.4618	-315.6400	-0.4613
165.2643	-315.6400	-0.4640
166.0661	-315.6400	-0.4619
166.8686	-315.6400	-0.4637
167.6701	-315.6400	-0.4631
168.4731	-315.6400	-0.4634
169.2747	-315.6400	-0.4656
170.0769	-315.6400	-0.4608
170.8804	-315.6400	-0.4604
171.6835	-315.6400	-0.4597
172.4852	-315.6400	-0.4622
173.2911	-315.6400	-0.4620
174.0926	-315.6400	-0.4610
174.8923	-315.6400	-0.4583
175.6947	-315.6400	-0.4594
176.4967	-315.6400	-0.4578
177.2990	-315.6400	-0.4556
178.0988	-315.6400	-0.4569
178.9035	-315.6400	-0.4575
179.7090	-315.6400	-0.4579
180.5118	-315.6400	-0.4581
181.3136	-315.6400	-0.4551
182.1172	-315.6400	-0.4514
182.9207	-315.6400	-0.4539
183.7234	-315.6400	-0.4530
184.5269	-315.6400	-0.4542
185.3277	-315.6400	-0.4531
186.1299	-315.6400	-0.4528
186.9308	-315.6400	-0.4537
187.7318	-315.6400	-0.4551
188.5373	-315.6400	-0.4537
189.3387	-315.6400	-0.4536
190.1398	-315.6400	-0.4513
190.9408	-315.6400	-0.4497
191.7452	-315.6400	-0.4499
192.5455	-315.6400	-0.4465
193.3454	-315.6400	-0.4486
194.1478	-315.6400	-0.4479
194.9514	-315.6400	-0.4500
195.7542	-315.6400	-0.4494
196.5546	-315.6400	-0.4494
197.3581	-315.6400	-0.4465
198.1596	-315.6400	-0.4487
198.9619	-315.6400	-0.4456
199.7622	-315.6400	-0.4483
200.5628	-315.6400	-0.4447
201.3637	-315.6400	-0.4468
202.1655	-315.6400	-0.4437
202.9684	-315.6400	-0.4449
203.7694	-315.6400	-0.4431
204.5733	-315.6400	-0.4412
205.3757	-315.6400	-0.4407
206.1797	-315.6400	-0.4407
206.9820	-315.6400	-0.4419
207.7832	-315.6400	-0.4413
208.5851	-315.6400	-0.4416
209.3857	-315.6400	-0.4409
210.1902	-315.6400	-0.4403
210.9920	-315.6400	-0.4406
211.7928	-315.6400	-0.4410
212.5965	-315.6400	-0.4410
213.3995	-315.6400	-0.4415
214.2012	-315.6400	-0.4418
215.0008	-315.6400	-0.4391
215.8039	-315.6400	-0.4369
216.6059	-315.6400	-0.4376
217.4092	-315.6400	-0.4379
218.2126	-315.6400	-0.4396
219.0166	-315.6400	-0.4399
219.8175	-315.6400	-0.4390
220.6213	-315.6400	-0.4395
221.4239	-315.6400	-0.4389
222.2256	-315.6400	-0.4342
223.0300	-315.6400	-0.4377
223.8309	-315.6400	-0.4375
224.6307	-315.6400	-0.4361