File: Tinius-Olsen_Levitation_force/Measurements/20231204_1649GDBCOs2_sl6_3.txt
4/12/2023 4:49:00 pm
Time(s)	Displacement(mm)	Force(N)
0.0000	-266.9280	1.1656
0.4203	-269.3570	1.1559
0.8213	-272.0230	1.1571
1.2233	-274.6890	1.1613
1.6255	-277.3900	1.1655
2.0272	-280.0550	1.1784
2.4276	-282.7210	1.1943
2.8271	-285.3870	1.2095
3.2281	-288.0530	1.2344
3.6294	-290.7590	1.2549
4.0306	-293.4240	1.2723
4.4317	-296.0900	1.2900
4.8343	-298.7910	1.2767
5.2350	-301.4600	1.2319
5.6358	-304.1250	1.0794
6.0376	-306.7910	0.7303
6.4373	-309.4570	-0.0212
6.8389	-312.1580	-1.4796
7.2414	-314.8230	-4.1561
7.6421	-316.8010	-6.9442
8.0424	-316.8000	-6.8063
8.4433	-316.8000	-6.7543
8.8439	-316.8000	-6.7211
9.2433	-316.8000	-6.7000
9.6461	-316.8000	-6.6818
10.0461	-316.8000	-6.6660
10.4473	-316.8000	-6.6538
10.8473	-316.8000	-6.6473
11.2485	-316.8000	-6.6344
11.6483	-316.8000	-6.6298
12.0487	-316.8000	-6.6199
12.4487	-316.8000	-6.6145
12.8494	-316.8000	-6.6084
13.2493	-316.8000	-6.6016
13.6509	-316.8000	-6.5998
14.0508	-316.8000	-6.5935
14.4511	-316.8000	-6.5878
14.8517	-316.8000	-6.5810
15.2547	-316.8000	-6.5792
15.6546	-316.8000	-6.5772
16.0559	-316.8000	-6.5698
16.4553	-316.8000	-6.5643
16.8558	-316.8000	-6.5633
17.2562	-316.8000	-6.5604
17.6558	-316.8000	-6.5524
18.0553	-316.8000	-6.5550
18.4567	-316.8000	-6.5501
18.8571	-316.8000	-6.5501
19.2573	-316.8000	-6.5484
19.6599	-316.8000	-6.5431
20.0596	-316.8000	-6.5414
20.4616	-316.8000	-6.5381
20.8614	-316.8000	-6.5407
21.2637	-316.8000	-6.5335
21.6648	-316.8000	-6.5292
22.0665	-316.8000	-6.5310
22.4670	-316.8000	-6.5266
22.8675	-316.8000	-6.5237
23.2678	-316.8000	-6.5211
23.6698	-316.8000	-6.5202
24.0696	-316.8000	-6.5170
24.4695	-316.8000	-6.5145
24.8710	-316.8000	-6.5110
25.2715	-316.8000	-6.5124
25.6719	-316.8000	-6.5094
26.0736	-316.8000	-6.5080
26.4756	-316.8000	-6.5073
26.8771	-316.8000	-6.5069
27.2780	-316.8000	-6.5035
27.6791	-316.8000	-6.5041
28.0788	-316.8000	-6.5015
28.4794	-316.8000	-6.5002
28.8794	-316.8000	-6.4987
29.2794	-316.8000	-6.4975
29.6795	-316.8000	-6.4941
30.0795	-316.8000	-6.4940
30.4823	-316.8000	-6.4913
30.8815	-316.8000	-6.4933
31.2831	-316.8000	-6.4885
31.6827	-316.8000	-6.4896
32.0844	-316.8000	-6.4902
32.4846	-316.8000	-6.4843
32.8873	-316.8000	-6.4842
33.2865	-316.8000	-6.4825
33.6870	-316.8000	-6.4804
34.0877	-316.8000	-6.4833
34.4873	-316.8000	-6.4820
34.8883	-316.8000	-6.4786
35.2875	-316.8000	-6.4840
35.6887	-316.8000	-6.4799
36.0900	-316.8000	-6.4786
36.4897	-316.8000	-6.4735
36.8923	-316.8000	-6.4733
37.2919	-316.8000	-6.4758
37.6941	-316.8000	-6.4711
38.0941	-316.8000	-6.4695
38.4966	-316.8000	-6.4702
38.8981	-316.8000	-6.4657
39.2992	-316.8000	-6.4650
39.7028	-316.8000	-6.4661
40.1027	-316.8000	-6.4671
40.5026	-316.8000	-6.4628
40.9049	-316.8000	-6.4659
41.3050	-316.8000	-6.4602
41.7066	-316.8000	-6.4584
42.1083	-316.8000	-6.4581
42.5092	-316.8000	-6.4578
42.9093	-316.8000	-6.4579
43.3093	-316.8000	-6.4566
43.7090	-316.8000	-6.4529
44.1093	-316.8000	-6.4582
44.5096	-316.8000	-6.4548
44.9112	-316.8000	-6.4547
45.3132	-316.8000	-6.4536
45.7133	-316.8000	-6.4525
46.1153	-316.8000	-6.4523
46.5172	-316.8000	-6.4499
46.9166	-316.8000	-6.4486
47.3175	-316.8000	-6.4500
47.7178	-316.8000	-6.4466
48.1188	-316.8000	-6.4494
48.5198	-316.8000	-6.4461
48.9196	-316.8000	-6.4509
49.3199	-316.8000	-6.4461
49.7199	-316.8000	-6.4488
50.1214	-316.8000	-6.4440
50.5219	-316.8000	-6.4434
50.9215	-316.8000	-6.4404
51.3216	-316.8000	-6.4409
51.7232	-316.8000	-6.4372
52.1236	-316.8000	-6.4388
52.5255	-316.8000	-6.4347
52.9251	-316.8000	-6.4385
53.3251	-316.8000	-6.4345
53.7271	-316.8000	-6.4360
54.1277	-316.8000	-6.4358
54.5277	-316.8000	-6.4334
54.9278	-316.8000	-6.4316
55.3286	-316.8000	-6.4356
55.7296	-316.8000	-6.4321
56.1299	-316.8000	-6.4346
56.5299	-316.8000	-6.4330
56.9297	-316.8000	-6.4292
57.3322	-316.8000	-6.4312
57.7320	-316.8000	-6.4302
58.1351	-316.8000	-6.4324
58.5368	-316.8000	-6.4274
58.9383	-316.8000	-6.4303
59.3399	-316.8000	-6.4279
59.7410	-316.8000	-6.4280
60.1421	-316.8000	-6.4279
60.5435	-316.8000	-6.4272
60.9441	-316.8000	-6.4259
61.3451	-316.8000	-6.4235
61.7464	-316.8000	-6.4220
62.1461	-316.8000	-6.4217
62.5469	-316.8000	-6.4222
62.9495	-316.8000	-6.4235
63.3488	-316.8000	-6.4234
63.7499	-316.8000	-6.4212
64.1505	-316.8000	-6.4198
64.5500	-316.8000	-6.4182
64.9508	-316.8000	-6.4183
65.3521	-316.8000	-6.4193
65.7527	-316.8000	-6.4183
66.1537	-316.8000	-6.4149
66.5556	-316.8000	-6.4146
66.9559	-316.8000	-6.4105
67.3577	-316.8000	-6.4142
67.7582	-316.8000	-6.4127
68.1584	-316.8000	-6.4094
68.5614	-316.8000	-6.4079
68.9618	-316.8000	-6.4110
69.3636	-316.8000	-6.4114
69.7631	-316.8000	-6.4110
70.1636	-316.8000	-6.4093
70.5677	-316.8000	-6.4116
70.9698	-316.8000	-6.4091
71.3701	-316.8000	-6.4048
71.7698	-316.8000	-6.4043
72.1699	-316.8000	-6.4057
72.5713	-316.8000	-6.4066
72.9710	-316.8000	-6.4021
73.3707	-316.8000	-6.4066
73.7735	-316.8000	-6.4046
74.1736	-316.8000	-6.4052
74.5735	-316.8000	-6.4077
74.9749	-316.8000	-6.4026
75.3760	-316.8000	-6.4037
75.7792	-316.8000	-6.4015
76.1790	-316.8000	-6.4040
76.5792	-316.8000	-6.4030
76.9794	-316.8000	-6.3994
77.3788	-316.8000	-6.4016
77.7790	-316.8000	-6.4011
78.1795	-316.8000	-6.3974
78.5801	-316.8000	-6.3980
78.9826	-316.8000	-6.3986
79.3830	-316.8000	-6.3983
79.7818	-316.8000	-6.3972
80.1845	-316.8000	-6.3950
80.5852	-316.8000	-6.3976
80.9869	-316.8000	-6.3898
81.3878	-316.8000	-6.3944
81.7889	-316.8000	-6.3957
82.1918	-316.8000	-6.3943
82.5937	-316.8000	-6.3932
82.9946	-316.8000	-6.3927
83.3940	-316.8000	-6.3915
83.7955	-316.8000	-6.3906
84.1963	-316.8000	-6.3911
84.5984	-316.8000	-6.3922
85.0013	-316.8000	-6.3900
85.4041	-316.8000	-6.3887
85.8051	-316.8000	-6.3892
86.2054	-316.8000	-6.3883
86.6064	-316.8000	-6.3907
87.0062	-316.8000	-6.3883
87.4063	-316.8000	-6.3903
87.8080	-316.8000	-6.3888
88.2112	-316.8000	-6.3847
88.6129	-316.8000	-6.3872
89.0147	-316.8000	-6.3875
89.4146	-316.8000	-6.3867
89.8140	-316.8000	-6.3895
90.2148	-316.8000	-6.3874
90.6157	-316.8000	-6.3849
91.0165	-316.8000	-6.3840
91.4175	-316.8000	-6.3839
91.8175	-316.8000	-6.3836
92.2186	-316.8000	-6.3837
92.6209	-316.8000	-6.3867
93.0226	-316.8000	-6.3789
93.4242	-316.8000	-6.3806
93.8261	-316.8000	-6.3810
94.2278	-316.8000	-6.3823
94.6289	-316.8000	-6.3832
95.0300	-316.8000	-6.3824
95.4302	-316.8000	-6.3803
95.8311	-316.8000	-6.3806
96.2345	-316.8000	-6.3777
96.6371	-316.8000	-6.3772
97.0377	-316.8000	-6.3774
97.4381	-316.8000	-6.3779
97.8393	-316.8000	-6.3759
98.2391	-316.8000	-6.3775
98.6391	-316.8000	-6.3763
99.0418	-316.8000	-6.3739
99.4430	-316.8000	-6.3751
99.8649	-314.8920	-5.0630
100.2649	-312.2260	-1.3298
100.6659	-309.5600	0.3712
101.0651	-306.8940	1.1112
101.4671	-304.2280	1.3989
101.8685	-301.5280	1.4720
102.2687	-298.8620	1.4688
102.6697	-296.1950	1.4260
103.0691	-293.5300	1.3745
103.4700	-290.8610	1.3299
103.8702	-288.1950	1.2863
104.2724	-285.5290	1.2548
104.6729	-282.8630	1.2258
105.0724	-280.1970	1.2044
105.4741	-277.4970	1.1917
105.8744	-274.8310	1.1760
106.2760	-272.1620	1.1640
106.6763	-269.4970	1.1694
107.0792	-266.8370	1.1923
107.4821	-266.7990	1.2077
107.8853	-266.8000	1.2080
108.2880	-266.8000	1.2085
108.6894	-266.8000	1.2073
109.0901	-266.8000	1.2025
109.4909	-266.8000	1.2080