File: Tinius-Olsen_Levitation_force/Measurements/20231204_1545YBCOs1_sl9_5.txt
4/12/2023 3:45:38 pm
Time(s)	Displacement(mm)	Force(N)
0.0000	-265.7740	1.2462
0.8216	-270.8710	1.1823
1.6261	-276.2400	1.1368
2.4278	-281.5710	1.1283
3.2289	-286.9080	1.1267
4.0309	-292.2430	1.1074
4.8336	-297.6080	1.0376
5.6359	-302.9410	0.8506
6.4372	-308.3070	0.4858
7.2385	-313.6390	-0.2214
8.0399	-315.6400	-0.8317
8.8406	-315.6400	-0.7532
9.6407	-315.6400	-0.7196
10.4406	-315.6400	-0.6965
11.2463	-315.6400	-0.6784
12.0495	-315.6400	-0.6701
12.8527	-315.6400	-0.6535
13.6546	-315.6400	-0.6464
14.4577	-315.6400	-0.6415
15.2599	-315.6400	-0.6336
16.0617	-315.6400	-0.6282
16.8628	-315.6400	-0.6224
17.6629	-315.6400	-0.6166
18.4635	-315.6400	-0.6110
19.2662	-315.6400	-0.6077
20.0665	-315.6400	-0.6044
20.8722	-315.6400	-0.5992
21.6739	-315.6400	-0.5986
22.4761	-315.6400	-0.5942
23.2770	-315.6400	-0.5921
24.0802	-315.6400	-0.5873
24.8808	-315.6400	-0.5870
25.6831	-315.6400	-0.5836
26.4864	-315.6400	-0.5811
27.2885	-315.6400	-0.5810
28.0890	-315.6400	-0.5767
28.8941	-315.6400	-0.5732
29.6985	-315.6400	-0.5689
30.5005	-315.6400	-0.5679
31.3036	-315.6400	-0.5668
32.1040	-315.6400	-0.5655
32.9065	-315.6400	-0.5635
33.7081	-315.6400	-0.5626
34.5116	-315.6400	-0.5604
35.3137	-315.6400	-0.5578
36.1152	-315.6400	-0.5558
36.9190	-315.6400	-0.5589
37.7225	-315.6400	-0.5539
38.5263	-315.6400	-0.5551
39.3305	-315.6400	-0.5520
40.1360	-315.6400	-0.5492
40.9370	-315.6400	-0.5511
41.7385	-315.6400	-0.5492
42.5385	-315.6400	-0.5453
43.3387	-315.6400	-0.5442
44.1440	-315.6400	-0.5481
44.9450	-315.6400	-0.5452
45.7451	-315.6400	-0.5429
46.5503	-315.6400	-0.5414
47.3521	-315.6400	-0.5389
48.1563	-315.6400	-0.5374
48.9568	-315.6400	-0.5358
49.7580	-315.6400	-0.5392
50.5604	-315.6400	-0.5331
51.3605	-315.6400	-0.5322
52.1633	-315.6400	-0.5325
52.9656	-315.6400	-0.5343
53.7660	-315.6400	-0.5312
54.5668	-315.6400	-0.5330
55.3711	-315.6400	-0.5312
56.1725	-315.6400	-0.5283
56.9758	-315.6400	-0.5301
57.7784	-315.6400	-0.5261
58.5797	-315.6400	-0.5255
59.3826	-315.6400	-0.5229
60.1848	-315.6400	-0.5249
60.9899	-315.6400	-0.5232
61.7954	-315.6400	-0.5235
62.5965	-315.6400	-0.5224
63.3987	-315.6400	-0.5210
64.2015	-315.6400	-0.5214
65.0028	-315.6400	-0.5187
65.8049	-315.6400	-0.5189
66.6080	-315.6400	-0.5160
67.4113	-315.6400	-0.5164
68.2112	-315.6400	-0.5146
69.0129	-315.6400	-0.5138
69.8153	-315.6400	-0.5151
70.6214	-315.6400	-0.5152
71.4232	-315.6400	-0.5166
72.2250	-315.6400	-0.5113
73.0275	-315.6400	-0.5147
73.8287	-315.6400	-0.5130
74.6310	-315.6400	-0.5140
75.4324	-315.6400	-0.5104
76.2334	-315.6400	-0.5105
77.0336	-315.6400	-0.5112
77.8346	-315.6400	-0.5060
78.6368	-315.6400	-0.5098
79.4391	-315.6400	-0.5087
80.2403	-315.6400	-0.5074
81.0414	-315.6400	-0.5075
81.8414	-315.6400	-0.5069
82.6428	-315.6400	-0.5050
83.4435	-315.6400	-0.5055
84.2436	-315.6400	-0.5024
85.0460	-315.6400	-0.5051
85.8481	-315.6400	-0.5038
86.6510	-315.6400	-0.5070
87.4501	-315.6400	-0.5057
88.2538	-315.6400	-0.5044
89.0571	-315.6400	-0.4989
89.8611	-315.6400	-0.5024
90.6651	-315.6400	-0.5027
91.4686	-315.6400	-0.4995
92.2722	-315.6400	-0.5009
93.0790	-315.6400	-0.4992
93.8797	-315.6400	-0.4984
94.6817	-315.6400	-0.4984
95.4815	-315.6400	-0.4977
96.2846	-315.6400	-0.5006
97.0882	-315.6400	-0.4952
97.8890	-315.6400	-0.4990
98.6893	-315.6400	-0.4954
99.4929	-315.6400	-0.4959
100.2935	-315.6400	-0.4929
101.0958	-315.6400	-0.4965
101.8953	-315.6400	-0.4949
102.6990	-315.6400	-0.4931
103.5003	-315.6400	-0.4936
104.3025	-315.6400	-0.4902
105.1047	-315.6400	-0.4924
105.9090	-315.6400	-0.4905
106.7126	-315.6400	-0.4914
107.5138	-315.6400	-0.4928
108.3148	-315.6400	-0.4885
109.1174	-315.6400	-0.4902
109.9193	-315.6400	-0.4881
110.7198	-315.6400	-0.4918
111.5228	-315.6400	-0.4906
112.3239	-315.6400	-0.4876
113.1250	-315.6400	-0.4903
113.9252	-315.6400	-0.4867
114.7278	-315.6400	-0.4874
115.5288	-315.6400	-0.4851
116.3305	-315.6400	-0.4854
117.1319	-315.6400	-0.4875
117.9317	-315.6400	-0.4843
118.7348	-315.6400	-0.4863
119.5349	-315.6400	-0.4838
120.3399	-315.6400	-0.4836
121.1401	-315.6400	-0.4842
121.9464	-315.6400	-0.4854
122.7491	-315.6400	-0.4848
123.5494	-315.6400	-0.4802
124.3518	-315.6400	-0.4796
125.1569	-315.6400	-0.4814
125.9578	-315.6400	-0.4795
126.7591	-315.6400	-0.4832
127.5595	-315.6400	-0.4776
128.3630	-315.6400	-0.4782
129.1662	-315.6400	-0.4775
129.9665	-315.6400	-0.4755
130.7722	-315.6400	-0.4797
131.5727	-315.6400	-0.4825
132.3742	-315.6400	-0.4796
133.1749	-315.6400	-0.4799
133.9762	-315.6400	-0.4781
134.7759	-315.6400	-0.4748
135.5768	-315.6400	-0.4785
136.3824	-315.6400	-0.4749
137.1841	-315.6400	-0.4739
137.9856	-315.6400	-0.4745
138.7865	-315.6400	-0.4755
139.5881	-315.6400	-0.4743
140.3927	-315.6400	-0.4757
141.1943	-315.6400	-0.4786
141.9960	-315.6400	-0.4765
142.7971	-315.6400	-0.4731
143.5992	-315.6400	-0.4764
144.4008	-315.6400	-0.4751
145.2041	-315.6400	-0.4720
146.0076	-315.6400	-0.4719
146.8074	-315.6400	-0.4702
147.6105	-315.6400	-0.4710
148.4115	-315.6400	-0.4718
149.2172	-315.6400	-0.4712
150.0193	-315.6400	-0.4697
150.8203	-315.6400	-0.4700
151.6217	-315.6400	-0.4693
152.4257	-315.6400	-0.4688
153.2301	-315.6400	-0.4687
154.0321	-315.6400	-0.4663
154.8341	-315.6400	-0.4678
155.6347	-315.6400	-0.4673
156.4397	-315.6400	-0.4699
157.2413	-315.6400	-0.4686
158.0423	-315.6400	-0.4645
158.8476	-315.6400	-0.4659
159.6481	-315.6400	-0.4659
160.4489	-315.6400	-0.4696
161.2502	-315.6400	-0.4660
162.0522	-315.6400	-0.4679
162.8535	-315.6400	-0.4659
163.6543	-315.6400	-0.4663
164.4543	-315.6400	-0.4673
165.2561	-315.6400	-0.4661
166.0591	-315.6400	-0.4641
166.8602	-315.6400	-0.4632
167.6622	-315.6400	-0.4633
168.4622	-315.6400	-0.4605
169.2645	-315.6400	-0.4652
170.0686	-315.6400	-0.4681
170.8685	-315.6400	-0.4644
171.6722	-315.6400	-0.4655
172.4741	-315.6400	-0.4644
173.2760	-315.6400	-0.4624
174.0778	-315.6400	-0.4613
174.8799	-315.6400	-0.4613
175.6821	-315.6400	-0.4589
176.4844	-315.6400	-0.4616
177.2841	-315.6400	-0.4604
178.0840	-315.6400	-0.4593
178.8879	-315.6400	-0.4623
179.6903	-315.6400	-0.4635
180.4953	-315.6400	-0.4600
181.2959	-315.6400	-0.4600
182.0959	-315.6400	-0.4591
182.9001	-315.6400	-0.4609
183.7008	-315.6400	-0.4598
184.5001	-315.6400	-0.4587
185.3017	-315.6400	-0.4589
186.1051	-315.6400	-0.4578
186.9102	-315.6400	-0.4589
187.7125	-315.6400	-0.4565
188.5152	-315.6400	-0.4572
189.3196	-315.6400	-0.4582
190.1206	-315.6400	-0.4583
190.9230	-315.6400	-0.4559
191.7222	-315.6400	-0.4563
192.5248	-315.6400	-0.4563
193.3265	-315.6400	-0.4579
194.1301	-315.6400	-0.4575
194.9325	-315.6400	-0.4542
195.7546	-314.4140	-0.4547
196.5568	-309.0810	1.9304
197.3595	-303.7150	1.7872
198.1592	-298.3830	1.5161
198.9615	-293.0480	1.3349
199.7633	-287.6820	1.2395
200.5654	-282.3500	1.1892
201.3656	-277.0180	1.1666
202.1672	-271.6860	1.1699
202.9697	-266.3170	1.2455
203.7708	-265.6390	1.3003
204.5716	-265.6400	1.3004
205.3732	-265.6400	1.3016
206.1945	-263.0980	1.3006
206.9949	-257.7310	1.3597
207.7972	-252.3990	1.3886
208.5987	-247.0670	1.3960
209.4011	-241.6980	1.4016
210.2066	-236.3290	1.3959
211.0097	-230.9630	1.3927
211.8123	-225.6310	1.3938
212.6133	-220.2650	1.3886
213.4146	-215.6390	1.3888
214.2150	-215.6400	1.3906
215.0177	-215.6400	1.3874
215.8176	-215.6400	1.3872
216.6409	-212.3940	1.3901
217.4404	-207.0620	1.3920
218.2412	-201.7300	1.3882
219.0427	-196.3980	1.3892
219.8456	-191.0320	1.3874
220.6456	-185.7000	1.3865
221.4478	-180.3680	1.3858
222.2478	-175.0360	1.3829
223.0486	-169.7030	1.3828
223.8514	-165.6390	1.3848
224.6544	-165.6400	1.3830