File: Tinius-Olsen_Levitation_force/Measurements/20231204_1051cut1_lowN_2.txt
4/12/2023 10:51:51 am
Time(s)	Displacement(mm)	Force(N)
0.0000	49.8480	1.3167
1.4433	40.6480	1.3377
2.8480	31.2800	1.3320
4.2493	21.9470	1.3335
5.6493	12.6110	1.3305
7.0513	3.2450	1.3312
8.4528	-6.0850	1.3333
9.8579	-15.4520	1.3318
11.2594	-24.7860	1.3261
12.6622	-34.1560	1.3300
14.0649	-43.4870	1.3312
15.4664	-52.8550	1.3293
16.8681	-62.1880	1.3338
18.2689	-71.5530	1.3338
19.6696	-80.8850	1.3324
21.0718	-90.2160	1.3357
22.4718	-99.5490	1.3301
23.8749	-108.9140	1.3392
25.2777	-118.2480	1.3325
26.6842	-127.6500	1.3293
28.0874	-136.9830	1.3381
29.4897	-146.3480	1.3270
30.8897	-155.6790	1.3336
32.2917	-165.0110	1.3360
33.6918	-174.3420	1.3320
35.0955	-183.7070	1.3354
36.4946	-193.0400	1.3361
37.8962	-202.3710	1.3335
39.2961	-211.7020	1.3325
40.6978	-221.0670	1.3334
42.0984	-230.3990	1.3352
43.4999	-239.7300	1.3353
44.8999	-249.0610	1.3294
46.3039	-258.4310	1.3320
47.7069	-267.7960	1.3265
49.1100	-277.1270	1.3131
50.5125	-286.4930	1.2634
51.9125	-295.8260	1.0942
53.3172	-305.1940	0.3184
54.7178	-314.5270	-3.6755
56.1201	-316.0000	-4.0545
57.5225	-316.0000	-3.8110
58.9230	-316.0000	-3.7247
60.3241	-316.0000	-3.6745
61.7247	-316.0000	-3.6238
63.1290	-316.0000	-3.5968
64.5296	-316.0000	-3.5767
65.9304	-316.0000	-3.5563
67.3323	-316.0000	-3.5415
68.7340	-316.0000	-3.5216
70.1374	-316.0000	-3.5061
71.5381	-316.0000	-3.4976
72.9410	-316.0000	-3.4763
74.3432	-316.0000	-3.4763
75.7453	-316.0000	-3.4546
77.1483	-316.0000	-3.4589
78.5505	-316.0000	-3.4477
79.9530	-316.0000	-3.4390
81.3530	-316.0000	-3.4204
82.7528	-316.0000	-3.4176
84.1563	-316.0000	-3.3974
85.5575	-316.0000	-3.3856
86.9588	-316.0000	-3.3667
88.3607	-316.0000	-3.3655
89.7620	-316.0000	-3.3467
91.1642	-316.0000	-3.3461
92.5713	-316.0000	-3.3166
93.9708	-316.0000	-3.3101
95.3731	-316.0000	-3.2955
96.7733	-316.0000	-3.2732
98.1767	-316.0000	-3.2668
99.5809	-316.0000	-3.2492
100.9824	-316.0000	-3.2332
102.3833	-316.0000	-3.2190
103.7834	-316.0000	-3.2082
105.1848	-316.0000	-3.1922
106.5855	-316.0000	-3.1808
107.9862	-316.0000	-3.1651
109.3881	-316.0000	-3.1331
110.7911	-316.0000	-3.1094
112.1911	-316.0000	-3.0918
113.5911	-316.0000	-3.0487
114.9935	-316.0000	-3.0388
116.3943	-316.0000	-3.0122
117.7952	-316.0000	-2.9912
119.2011	-316.0000	-2.9668
120.6070	-316.0000	-2.9424
122.0101	-316.0000	-2.9327
123.4112	-316.0000	-2.9186
124.8128	-316.0000	-2.8980
126.2136	-316.0000	-2.8750
127.6171	-316.0000	-2.8471
129.0185	-316.0000	-2.8263
130.4188	-316.0000	-2.8035
131.8230	-316.0000	-2.7861
133.2234	-316.0000	-2.7629
134.6239	-316.0000	-2.7458
136.0237	-316.0000	-2.7212
137.4247	-316.0000	-2.6989
138.8244	-316.0000	-2.6730
140.2282	-316.0000	-2.6589
141.6317	-316.0000	-2.6409
143.0341	-316.0000	-2.6082
144.4341	-316.0000	-2.5847
145.8358	-316.0000	-2.5664
147.2379	-316.0000	-2.5390
148.6399	-316.0000	-2.5101
150.0416	-316.0000	-2.4834
151.4418	-316.0000	-2.4605
152.8418	-316.0000	-2.4354
154.2443	-316.0000	-2.4164
155.6447	-316.0000	-2.3903
157.0488	-316.0000	-2.3635
158.4498	-316.0000	-2.3300
159.8534	-316.0000	-2.2952
161.2542	-316.0000	-2.2725
162.6543	-316.0000	-2.2351
164.0569	-316.0000	-2.2068
165.4620	-316.0000	-2.1697
166.8621	-316.0000	-2.1371
168.2623	-316.0000	-2.0901
169.6645	-316.0000	-2.0585
171.0660	-316.0000	-2.0137
172.4674	-316.0000	-1.9811
173.8709	-316.0000	-1.9499
175.2764	-316.0000	-1.9074
176.6796	-316.0000	-1.8617
178.0804	-316.0000	-1.8291
179.4804	-316.0000	-1.7722
180.8826	-316.0000	-1.7226
182.2830	-316.0000	-1.6854
183.6881	-316.0000	-1.6504
185.0897	-316.0000	-1.6082
186.4904	-316.0000	-1.5714
187.8910	-316.0000	-1.5446
189.2925	-316.0000	-1.5205
190.6945	-316.0000	-1.4788
192.0970	-316.0000	-1.4577
193.4998	-316.0000	-1.4244
194.9014	-315.9990	-1.4040
196.3042	-316.0000	-1.3793
197.7051	-316.0000	-1.3577
199.1065	-316.0000	-1.3343
200.5095	-316.0000	-1.3143
201.9135	-316.0000	-1.2956
203.3151	-316.0000	-1.2639
204.7196	-316.0000	-1.2488
206.1228	-316.0000	-1.2259
207.5239	-316.0000	-1.2041
208.9258	-316.0000	-1.1902
210.3284	-316.0000	-1.1685
211.7317	-316.0000	-1.1510
213.1329	-316.0000	-1.1298
214.5329	-316.0000	-1.1186
215.9353	-316.0000	-1.0971
217.3379	-316.0000	-1.0841
218.7436	-316.0000	-1.0712
220.1430	-316.0000	-1.0657
221.5430	-316.0000	-1.0527
222.9451	-316.0000	-1.0396
224.3451	-316.0000	-1.0284
225.7466	-316.0000	-1.0163
227.1487	-316.0000	-0.9995
228.5508	-316.0000	-1.0019
229.9556	-316.0000	-0.9929
231.3556	-316.0000	-0.9784
232.7569	-316.0000	-0.9757
234.1605	-316.0000	-0.9599
235.5611	-316.0000	-0.9549
236.9633	-316.0000	-0.9523
238.3649	-316.0000	-0.9397
239.7657	-316.0000	-0.9326
241.1662	-316.0000	-0.9356
242.5682	-316.0000	-0.9176
243.9722	-316.0000	-0.9116
245.3758	-316.0000	-0.9102
246.7756	-316.0000	-0.9009
248.1758	-316.0000	-0.9050
249.5782	-316.0000	-0.8980
250.9791	-316.0000	-0.8932
252.3812	-316.0000	-0.8830
253.7836	-316.0000	-0.8780
255.1905	-316.0000	-0.8741
256.5935	-316.0000	-0.8761
257.9975	-316.0000	-0.8683
259.3988	-316.0000	-0.8621
260.8023	-316.0000	-0.8556
262.2037	-316.0000	-0.8579
263.6060	-316.0000	-0.8532
265.0058	-316.0000	-0.8479
266.4081	-316.0000	-0.8453
267.8112	-316.0000	-0.8404
269.2145	-316.0000	-0.8389
270.6190	-316.0000	-0.8351
272.0228	-316.0000	-0.8354
273.4260	-316.0000	-0.8325
274.8262	-316.0000	-0.8263
276.2277	-316.0000	-0.8213
277.6327	-316.0000	-0.8214
279.0340	-316.0000	-0.8224
280.4344	-316.0000	-0.8211
281.8340	-316.0000	-0.7995
283.2340	-316.0000	-0.8079
284.6375	-316.0000	-0.8038
286.0400	-316.0000	-0.7956
287.4420	-316.0000	-0.7910
288.8441	-316.0000	-0.7988
290.2443	-316.0000	-0.7889
291.6442	-316.0000	-0.7906
293.0441	-316.0000	-0.7878
294.4443	-316.0000	-0.7808
295.8467	-316.0000	-0.7800
297.2499	-316.0000	-0.7735
298.6533	-316.0000	-0.7674
300.0542	-316.0000	-0.7764
301.4602	-316.0000	-0.7657
302.8642	-316.0000	-0.7664
304.2662	-316.0000	-0.7568
305.6667	-316.0000	-0.7498
307.0711	-316.0000	-0.7521
308.4722	-316.0000	-0.7538
309.8746	-316.0000	-0.7507
311.2760	-316.0000	-0.7490
312.6785	-316.0000	-0.7442
314.0819	-316.0000	-0.7447
315.4846	-316.0000	-0.7408
316.8881	-316.0000	-0.7432
318.2904	-316.0000	-0.7363
319.6936	-316.0000	-0.7362
321.0947	-316.0000	-0.7319
322.4979	-316.0000	-0.7312
323.9020	-316.0000	-0.7237
325.3046	-316.0000	-0.7248
326.7063	-316.0000	-0.7213
328.1068	-316.0000	-0.7210
329.5073	-316.0000	-0.7173
330.9069	-316.0000	-0.7170
332.3109	-316.0000	-0.7171
333.7168	-316.0000	-0.7111
335.1193	-316.0000	-0.7157
336.5226	-316.0000	-0.7084
337.9250	-316.0000	-0.7006
339.3274	-316.0000	-0.7053
340.7298	-316.0000	-0.7042
342.1309	-316.0000	-0.6944
343.5337	-316.0000	-0.6945
344.9357	-316.0000	-0.6876
346.3351	-316.0000	-0.6936
347.7352	-316.0000	-0.6859
349.1352	-316.0000	-0.6883
350.5387	-316.0000	-0.6844
351.9415	-316.0000	-0.6817
353.3433	-316.0000	-0.6831
354.7459	-316.0000	-0.6765
356.1473	-316.0000	-0.6786
357.5477	-316.0000	-0.6744
358.9478	-316.0000	-0.6709
360.3490	-316.0000	-0.6668
361.7499	-316.0000	-0.6649
363.1536	-316.0000	-0.6694
364.5578	-316.0000	-0.6709
365.9576	-316.0000	-0.6681
367.3606	-316.0000	-0.6626
368.7649	-316.0000	-0.6609
370.1655	-316.0000	-0.6625
371.5674	-316.0000	-0.6607
372.9679	-316.0000	-0.6616
374.3712	-316.0000	-0.6507
375.7729	-316.0000	-0.6601
377.1757	-316.0000	-0.6413
378.5781	-316.0000	-0.6565
379.9780	-316.0000	-0.6499
381.3813	-316.0000	-0.6488
382.7867	-316.0000	-0.6497
384.1906	-316.0000	-0.6407
385.5934	-316.0000	-0.6413
386.9948	-316.0000	-0.6397
388.3954	-316.0000	-0.6416
389.7976	-316.0000	-0.6381
391.2016	-316.0000	-0.6346
392.6037	-316.0000	-0.6337
394.0054	-316.0000	-0.6330
395.4082	-316.0000	-0.6279
396.1096	-316.0000	-0.6347