File: Tinius-Olsen_Levitation_force/Measurements/20231204_1223cut1_highN_1.txt
4/12/2023 12:23:57 pm
Time(s)	Displacement(mm)	Force(N)
0.0000	-281.2420	1.0455
1.4467	-281.2420	1.0430
2.8501	-281.2420	1.0462
4.2544	-281.2420	1.0440
5.6616	-281.2420	1.0418
7.0651	-281.2420	1.0458
8.4691	-281.2420	1.0432
9.8725	-281.2420	1.0511
11.2740	-281.2420	1.0479
12.6799	-281.2420	1.0492
14.0826	-281.2420	1.0499
15.5099	-281.0000	1.0564
16.9133	-281.0000	1.0571
18.3169	-281.0000	1.0543
19.7192	-281.0000	1.0570
21.1245	-281.0000	1.0553
22.5278	-281.0000	1.0642
23.9341	-281.0000	1.0594
25.3367	-281.0000	1.0601
26.7386	-281.0000	1.0586
28.1418	-281.0000	1.0585
29.5501	-281.0000	1.0632
30.9522	-281.0000	1.0612
32.3618	-281.0000	1.0607
33.7660	-281.0000	1.0647
35.1686	-281.0000	1.0648
36.5738	-281.0000	1.0722
37.9762	-281.0000	1.0647
39.3823	-278.5570	1.1003
40.7853	-275.7470	1.1463
42.1872	-263.4690	1.3399
43.5904	-249.4210	1.3776
44.9921	-236.5680	1.3480
46.3984	-237.4220	1.3729
47.8025	-248.1970	1.3687
49.2052	-262.2450	1.3447
50.6088	-276.2460	1.1586
52.0102	-290.2930	0.9754
53.4166	-292.5320	0.9284
54.8226	-292.5320	0.9276
56.2265	-292.5320	0.9326
57.6298	-292.5320	0.9292
59.0343	-292.5320	0.9331
60.4364	-292.5320	0.9327
61.8421	-292.5320	0.9313
63.2462	-292.5320	0.9323
64.6546	-292.5320	0.9289
66.0553	-292.5320	0.9327
67.4592	-292.5320	0.9334
68.8616	-292.5320	0.9319
70.2651	-292.5320	0.9340
71.6697	-292.5320	0.9369
73.0719	-292.5320	0.9376
74.4733	-292.5320	0.9334
75.8768	-292.5320	0.9335
77.2812	-292.5320	0.9362
78.6862	-292.5320	0.9367
80.0917	-292.5320	0.9364
81.4931	-292.5320	0.9384
82.8941	-292.5320	0.9383
84.2988	-292.5320	0.9358
85.7069	-292.5320	0.9386
87.1064	-292.5320	0.9353
88.5100	-292.5320	0.9388
89.9129	-292.5320	0.9372
91.3198	-292.5320	0.9381
92.7235	-292.5320	0.9372
94.1281	-292.5320	0.9374
95.5318	-292.5320	0.9350
96.9370	-292.5320	0.9366
98.3396	-292.5320	0.9380
99.7470	-292.5320	0.9377
101.1491	-292.5320	0.9355
102.5569	-292.5320	0.9354
103.9623	-292.5320	0.9429
105.3648	-292.5320	0.9351
106.7694	-292.5320	0.9378
108.1742	-292.5320	0.9393
109.5779	-292.5320	0.9373
110.9823	-292.5320	0.9386
112.3821	-292.5320	0.9415
113.7871	-292.5320	0.9427
115.1932	-292.5320	0.9406
116.5975	-292.5320	0.9395
118.0027	-292.5320	0.9355
119.4115	-292.5320	0.9393
120.8175	-292.5320	0.9378
122.2206	-292.5320	0.9367
123.6229	-292.5320	0.9403
125.0275	-292.5320	0.9380
126.4292	-292.5320	0.9336
127.8323	-292.5320	0.9440
129.2357	-292.5320	0.9419
130.6392	-292.5320	0.9430
132.0432	-292.5320	0.9362
133.4501	-292.5320	0.9447
134.8565	-292.5320	0.9399
136.2844	-292.0000	0.9485
137.6846	-292.0000	0.9568
139.0903	-292.0000	0.9573
140.4985	-292.0000	0.9539
141.9025	-292.0000	0.9551
143.3050	-292.0000	0.9554
144.7113	-292.0000	0.9501
146.1145	-292.0000	0.9486
147.5205	-292.0000	0.9535
148.9265	-292.0000	0.9521
150.3341	-292.0000	0.9544
151.7374	-292.0000	0.9582
153.1375	-292.0000	0.9503
154.5407	-292.0000	0.9493
155.9467	-292.0000	0.9539
157.3498	-292.0000	0.9547
158.7514	-292.0000	0.9570
160.1561	-292.0000	0.9502
161.5592	-292.0000	0.9566
162.9626	-292.0000	0.9532
164.3668	-292.0000	0.9516
165.7728	-292.0000	0.9524
167.1730	-292.0000	0.9517
168.5728	-292.0000	0.9529
169.9781	-292.0000	0.9540
171.3829	-292.0000	0.9531
172.7856	-292.0000	0.9541
174.1875	-292.0000	0.9528
175.5891	-292.0000	0.9512
176.9929	-292.0000	0.9574
178.4006	-292.0000	0.9551
179.8053	-292.0000	0.9545
181.2075	-292.0000	0.9498
182.6106	-292.0000	0.9580
184.0145	-292.0000	0.9539
185.4184	-292.0000	0.9554
186.8306	-292.0000	0.9541
188.2372	-292.0000	0.9576
189.6443	-292.0000	0.9519
191.0487	-292.0000	0.9453
192.4507	-292.0000	0.9495
193.8537	-292.0000	0.9562
195.2553	-292.0000	0.9565
196.6620	-292.0000	0.9554
198.0669	-292.0000	0.9548
199.4672	-292.0000	0.9531
200.8679	-292.0000	0.9492
202.2724	-292.0000	0.9552
203.6762	-292.0000	0.9516
205.0845	-292.0000	0.9515
206.4850	-292.0000	0.9527
207.8898	-292.0000	0.9550
209.2918	-292.0000	0.9530
210.6987	-292.0000	0.9557
212.1014	-292.0000	0.9584
213.5069	-292.0000	0.9570
214.9093	-292.0000	0.9599
216.3111	-292.0000	0.9528
217.7355	-295.9000	0.9505
219.1388	-300.0010	0.6521
220.5424	-300.0000	0.6645
221.9456	-300.0000	0.6676
223.3517	-300.0000	0.6688
224.7575	-300.0000	0.6738
226.1613	-300.0000	0.6705
227.5659	-300.0000	0.6716
228.9660	-300.0000	0.6731
230.3709	-300.0000	0.6754
231.7930	-308.5560	0.3033
233.1969	-316.8010	-2.5664
234.6014	-316.8000	-4.5339
236.0043	-316.8000	-4.1841
237.4107	-316.8000	-4.0216
238.8183	-316.8000	-3.9196
240.2235	-316.8000	-3.8404
241.6292	-316.8000	-3.7884
243.0314	-316.8000	-3.7383
244.4353	-316.8000	-3.6977
245.8399	-316.8000	-3.6578
247.2433	-316.8000	-3.6301
248.6477	-316.8000	-3.6001
250.0507	-316.8000	-3.5787
251.4528	-316.8000	-3.5565
252.8602	-316.8000	-3.5322
254.2626	-316.8000	-3.5182
255.6693	-316.8000	-3.4966
257.0723	-316.8000	-3.4806
258.4748	-316.8000	-3.4668
259.8763	-316.8000	-3.4495
261.2806	-316.8000	-3.4391
262.6839	-316.8000	-3.4244
264.0871	-316.8000	-3.4119
265.4898	-316.8000	-3.3993
266.8937	-316.8000	-3.3909
268.3002	-316.8000	-3.3824
269.7090	-316.8000	-3.3651
271.1140	-316.8000	-3.3592
272.5147	-316.8000	-3.3500
273.9201	-316.8000	-3.3390
275.3207	-316.8000	-3.3332
276.7261	-316.8000	-3.3275
278.1288	-316.8000	-3.3136
279.5317	-316.8000	-3.3084
280.9354	-316.8000	-3.3014
282.3381	-316.8000	-3.2941
283.7437	-316.8000	-3.2898
285.1473	-316.8000	-3.2806
286.5528	-316.8000	-3.2751
287.9590	-316.8000	-3.2716
289.3622	-316.8000	-3.2623
290.7662	-316.8000	-3.2585
292.1700	-316.8000	-3.2526
293.5748	-316.8000	-3.2422
294.9794	-316.8000	-3.2389
296.3810	-316.8000	-3.2350
297.7844	-316.8000	-3.2282
299.1893	-316.8000	-3.2261
300.5943	-316.8000	-3.2200
301.9983	-316.8000	-3.2104
303.3999	-316.8000	-3.2029
304.8037	-316.8000	-3.2044
306.2069	-316.8000	-3.1975
307.6125	-316.8000	-3.1944
309.0169	-316.8000	-3.1873
310.4214	-316.8000	-3.1854
311.8246	-316.8000	-3.1816
313.2277	-316.8000	-3.1783
314.6323	-316.8000	-3.1727
316.0375	-316.8000	-3.1698
317.4412	-316.8000	-3.1644
318.8440	-316.8000	-3.1626
320.2466	-316.8000	-3.1584
321.6472	-316.8000	-3.1576
323.0536	-316.8000	-3.1479
324.4561	-316.8000	-3.1472
325.8555	-316.8000	-3.1448
327.2593	-316.8000	-3.1399
328.6648	-316.8000	-3.1387
330.0676	-316.8000	-3.1316
331.4719	-316.8000	-3.1287
332.8731	-316.8000	-3.1279
334.2748	-316.8000	-3.1258
335.6789	-316.8000	-3.1187
337.0854	-316.8000	-3.1187
338.4885	-316.8000	-3.1130
339.8915	-316.8000	-3.1125
341.2916	-316.8000	-3.1073
342.6965	-316.8000	-3.1050
344.1020	-316.8000	-3.0996
345.5045	-316.8000	-3.0989
346.9075	-316.8000	-3.0999
348.3111	-316.8000	-3.0972
349.7158	-316.8000	-3.0905
351.1205	-316.8000	-3.0878
352.5249	-316.8000	-3.0853
353.9247	-316.8000	-3.0824
355.3287	-316.8000	-3.0832
356.7298	-316.8000	-3.0783
358.1345	-316.8000	-3.0749
359.5388	-316.8000	-3.0743
360.9415	-316.8000	-3.0697
362.3452	-316.8000	-3.0695
363.7500	-316.8000	-3.0660
365.1552	-316.8000	-3.0645
366.5623	-316.8000	-3.0617
367.9665	-316.8000	-3.0575
369.3689	-316.8000	-3.0550
370.7701	-316.8000	-3.0485
372.1731	-316.8000	-3.0540
373.5758	-316.8000	-3.0522
374.9823	-316.8000	-3.0529
376.3885	-316.8000	-3.0446
377.7905	-316.8000	-3.0427
379.1928	-316.8000	-3.0410
380.5973	-316.8000	-3.0416
382.0026	-316.8000	-3.0377
383.4032	-316.8000	-3.0355
384.8054	-316.8000	-3.0343
386.2104	-316.8000	-3.0330
387.6121	-316.8000	-3.0278
389.0156	-316.8000	-3.0319
390.4206	-316.8000	-3.0282
391.8220	-316.8000	-3.0250
393.2290	-316.8000	-3.0191
394.6335	-316.8000	-3.0224
396.0361	-316.8000	-3.0163
397.4393	-316.8000	-3.0154
398.8402	-316.8000	-3.0160
400.2434	-316.8000	-3.0121
401.6446	-316.8000	-3.0095
403.0474	-316.8000	-3.0104
404.4512	-316.8000	-3.0074
405.8556	-316.8000	-3.0068
407.2578	-316.8000	-3.0054
408.6627	-316.8000	-3.0036
410.0689	-316.8000	-3.0016
411.4712	-316.8000	-3.0008
412.8735	-316.8000	-2.9979
414.2765	-316.8000	-2.9949
414.5774	-316.8000	-2.9968