File: Tinius-Olsen_Levitation_force/Measurements/20231204_1653GDBCOs2_sl6_5.txt
4/12/2023 4:53:29 pm
Time(s)	Displacement(mm)	Force(N)
0.0000	-266.9520	1.2120
1.7449	-278.1730	1.1831
3.4509	-289.5580	1.2550
5.1555	-300.9390	1.2626
6.8641	-312.3210	-1.5212
8.5686	-316.8000	-6.6749
10.2728	-316.8000	-6.5941
11.9780	-316.8000	-6.5557
13.6817	-316.8000	-6.5296
15.3879	-316.8000	-6.5148
17.0919	-316.8000	-6.4974
18.7991	-316.8000	-6.4826
20.5044	-316.8000	-6.4685
22.2086	-316.8000	-6.4620
23.9118	-316.8000	-6.4525
25.6135	-316.8000	-6.4467
27.3172	-316.8000	-6.4375
29.0195	-316.8000	-6.4340
30.7232	-316.8000	-6.4278
32.4321	-316.8000	-6.4242
34.1379	-316.8000	-6.4172
35.8462	-316.8000	-6.4126
37.5508	-316.8000	-6.4031
39.2528	-316.8000	-6.4025
40.9599	-316.8000	-6.4008
42.6651	-316.8000	-6.3965
44.3704	-316.8000	-6.3903
46.0729	-316.8000	-6.3855
47.7752	-316.8000	-6.3849
49.4799	-316.8000	-6.3811
51.1864	-316.8000	-6.3772
52.8888	-316.8000	-6.3749
54.5959	-316.8000	-6.3729
56.2984	-316.8000	-6.3705
58.0051	-316.8000	-6.3691
59.7100	-316.8000	-6.3636
61.4166	-316.8000	-6.3623
63.1196	-316.8000	-6.3598
64.8212	-316.8000	-6.3562
66.5234	-316.8000	-6.3538
68.2254	-316.8000	-6.3514
69.9332	-316.8000	-6.3490
71.6386	-316.8000	-6.3457
73.3425	-316.8000	-6.3432
75.0458	-316.8000	-6.3423
76.7512	-316.8000	-6.3417
78.4582	-316.8000	-6.3391
80.1626	-316.8000	-6.3359
81.8656	-316.8000	-6.3382
83.5692	-316.8000	-6.3328
85.2721	-316.8000	-6.3314
86.9794	-316.8000	-6.3299
88.6829	-316.8000	-6.3288
90.3857	-316.8000	-6.3273
92.0907	-316.8000	-6.3259
93.7944	-316.8000	-6.3218
95.5011	-316.8000	-6.3205
97.2037	-316.8000	-6.3177
98.9115	-316.8000	-6.3188
100.6163	-316.8000	-6.3160
102.3238	-316.8000	-6.3145
104.0271	-316.8000	-6.3117
105.7342	-316.8000	-6.3121
107.4388	-316.8000	-6.3105
109.1434	-316.8000	-6.3100
110.8537	-316.8000	-6.3083
112.5607	-316.8000	-6.3049
114.2645	-316.8000	-6.3050
115.9693	-316.8000	-6.3035
117.6739	-316.8000	-6.3018
119.3795	-316.8000	-6.3015
121.0820	-316.8000	-6.2999
122.7871	-316.8000	-6.2991
124.4885	-316.8000	-6.2945
126.1948	-316.8000	-6.2994
127.8979	-316.8000	-6.2918
129.6036	-316.8000	-6.2931
131.3057	-316.8000	-6.2880
133.0122	-316.8000	-6.2864
134.7171	-316.8000	-6.2885
136.4192	-316.8000	-6.2902
138.1229	-316.8000	-6.2912
139.8273	-316.8000	-6.2819
141.5317	-316.8000	-6.2879
143.2418	-316.8000	-6.2830
144.9465	-316.8000	-6.2816
146.6497	-316.8000	-6.2821
148.3551	-316.8000	-6.2787
150.0625	-316.8000	-6.2820
151.7700	-316.8000	-6.2764
153.4766	-316.8000	-6.2777
155.1774	-316.8000	-6.2813
156.8836	-316.8000	-6.2724
158.5901	-316.8000	-6.2726
160.2929	-316.8000	-6.2762
161.9965	-316.8000	-6.2716
163.7024	-316.8000	-6.2708
165.4089	-316.8000	-6.2678
167.1158	-316.8000	-6.2673
168.8211	-316.8000	-6.2668
170.5270	-316.8000	-6.2658
172.2298	-316.8000	-6.2621
173.9330	-316.8000	-6.2570
175.6403	-316.8000	-6.2617
177.3452	-316.8000	-6.2624
179.0477	-316.8000	-6.2589
180.7510	-316.8000	-6.2627
182.4558	-316.8000	-6.2571
184.1598	-316.8000	-6.2570
185.8612	-316.8000	-6.2580
187.5654	-316.8000	-6.2561
189.2736	-316.8000	-6.2529
190.9792	-316.8000	-6.2553
192.6851	-316.8000	-6.2510
194.3894	-316.8000	-6.2521
196.0933	-316.8000	-6.2509
197.7975	-316.8000	-6.2511
199.5056	-316.8000	-6.2497
201.2127	-316.8000	-6.2502
202.9183	-316.8000	-6.2513
204.6253	-316.8000	-6.2487
206.3293	-316.8000	-6.2443
208.0344	-316.8000	-6.2427
209.7400	-316.8000	-6.2449
211.4402	-316.8000	-6.2451
213.1438	-316.8000	-6.2410
214.8532	-316.8000	-6.2424
216.5611	-316.8000	-6.2439
218.2629	-316.8000	-6.2381
219.9643	-316.8000	-6.2337
221.6695	-316.8000	-6.2378
223.3745	-316.8000	-6.2372
225.0775	-316.8000	-6.2356
226.7826	-316.8000	-6.2391
228.4866	-316.8000	-6.2344
230.1923	-316.8000	-6.2372
231.8945	-316.8000	-6.2354
233.5981	-316.8000	-6.2313
235.3004	-316.8000	-6.2318
237.0059	-316.8000	-6.2291
238.7132	-316.8000	-6.2314
240.4141	-316.8000	-6.2274
242.1176	-316.8000	-6.2312
243.8203	-316.8000	-6.2254
245.5230	-316.8000	-6.2279
247.2269	-316.8000	-6.2288
248.9300	-316.8000	-6.2260
250.6342	-316.8000	-6.2260
252.3435	-316.8000	-6.2254
254.0487	-316.8000	-6.2209
255.7483	-316.8000	-6.2269
257.4548	-316.8000	-6.2209
259.1563	-316.8000	-6.2240
260.8607	-316.8000	-6.2242
262.5660	-316.8000	-6.2237
264.2707	-316.8000	-6.2181
265.9731	-316.8000	-6.2189
267.6768	-316.8000	-6.2156
269.3812	-316.8000	-6.2167
271.0867	-316.8000	-6.2140
272.7965	-316.8000	-6.2151
274.5008	-316.8000	-6.2108
276.2024	-316.8000	-6.2147
277.9053	-316.8000	-6.2124
279.6097	-316.8000	-6.2160
281.3133	-316.8000	-6.2070
283.0160	-316.8000	-6.2110
284.7184	-316.8000	-6.2176
286.4271	-316.8000	-6.2115
288.1334	-316.8000	-6.2134
289.8429	-316.8000	-6.2115
291.5463	-316.8000	-6.2113
293.2478	-316.8000	-6.2055
294.9549	-316.8000	-6.2082
296.6599	-316.8000	-6.2043
298.3645	-316.8000	-6.2051
300.0671	-316.8000	-6.2070
301.7690	-316.8000	-6.2049
303.4732	-316.8000	-6.2050
305.1766	-316.8000	-6.2028
306.8835	-316.8000	-6.2044
308.5855	-316.8000	-6.2019
310.2891	-316.8000	-6.1971
311.9950	-316.8000	-6.1996
313.6957	-316.8000	-6.2021
315.4019	-316.8000	-6.1953
317.1072	-316.8000	-6.1999
318.8122	-316.8000	-6.2000
320.5158	-316.8000	-6.1983
322.2190	-316.8000	-6.1985
323.9215	-316.8000	-6.2008
325.6208	-316.8000	-6.1944
327.3282	-316.8000	-6.1924
329.0311	-316.8000	-6.1956
330.7338	-316.8000	-6.1927
332.4363	-316.8000	-6.1984
334.1391	-316.8000	-6.1954
335.8432	-316.8000	-6.1934
337.5462	-316.8000	-6.1913
339.2491	-316.8000	-6.1948
340.9512	-316.8000	-6.1909
342.6530	-316.8000	-6.1872
344.3575	-316.8000	-6.1901
346.0628	-316.8000	-6.1918
347.7664	-316.8000	-6.1889
349.4716	-316.8000	-6.1900
351.1715	-316.8000	-6.1856
352.8748	-316.8000	-6.1870
354.5783	-316.8000	-6.1855
356.2793	-316.8000	-6.1886
357.9824	-316.8000	-6.1828
359.6871	-316.8000	-6.1839
361.3914	-316.8000	-6.1858
363.0923	-316.8000	-6.1869
364.7953	-316.8000	-6.1753
366.4977	-316.8000	-6.1832
368.1975	-316.8000	-6.1858
369.8992	-316.8000	-6.1834
371.5994	-316.8000	-6.1816
373.3038	-316.8000	-6.1783
375.0071	-316.8000	-6.1784
376.7119	-316.8000	-6.1821
378.4132	-316.8000	-6.1768
380.1193	-316.8000	-6.1858
381.8217	-316.8000	-6.1755
383.5220	-316.8000	-6.1705
385.2237	-316.8000	-6.1755
386.9318	-316.8000	-6.1748
388.6330	-316.8000	-6.1760
390.3358	-316.8000	-6.1760
392.0395	-316.8000	-6.1733
393.7413	-316.8000	-6.1733
395.4442	-316.8000	-6.1683
397.1484	-316.8000	-6.1712
398.8493	-316.8000	-6.1687
400.5521	-316.8000	-6.1723
402.2521	-316.8000	-6.1666
403.9582	-316.8000	-6.1637
405.6619	-316.8000	-6.1684
407.3693	-316.8000	-6.1715
409.0720	-316.8000	-6.1641
410.7715	-316.8000	-6.1668
412.4742	-316.8000	-6.1630
414.1798	-316.8000	-6.1674
415.8848	-316.8000	-6.1668
417.5876	-316.8000	-6.1611
419.2936	-316.8000	-6.1661
420.9978	-316.8000	-6.1630
422.7021	-316.8000	-6.1594
424.4020	-316.8000	-6.1609
426.1052	-316.8000	-6.1574
427.8087	-316.8000	-6.1584
429.5090	-316.8000	-6.1591
431.2134	-316.8000	-6.1588
432.9175	-316.8000	-6.1564
434.6222	-316.8000	-6.1558
436.3257	-316.8000	-6.1585
438.0304	-316.8000	-6.1541
439.7321	-316.8000	-6.1603
441.4388	-316.8000	-6.1551
443.1433	-316.8000	-6.1537
444.8440	-316.8000	-6.1564
446.5482	-316.8000	-6.1518
448.2511	-316.8000	-6.1495
449.9524	-316.8000	-6.1518
451.6548	-316.8000	-6.1514
453.3571	-316.8000	-6.1492
455.0613	-316.8000	-6.1537
456.7638	-316.8000	-6.1492
458.4690	-316.8000	-6.1468
460.1703	-316.8000	-6.1436
461.8758	-316.8000	-6.1502
463.5802	-316.8000	-6.1526
465.2871	-316.8000	-6.1482
466.9928	-316.8000	-6.1483
468.7176	-312.9020	-6.1498
470.4200	-301.5550	1.0296
472.1259	-290.1680	1.4529
473.8285	-278.8200	1.2610
475.5318	-267.4650	1.2203
477.2562	-265.5670	1.3111
478.9585	-254.2180	1.3622
480.6601	-242.8680	1.3901
482.3672	-231.4860	1.3802
484.0727	-220.1340	1.3723
485.6758	-216.8000	1.3724