File: Tinius-Olsen_Levitation_force/Measurements/20231127_1023calibration.txt
27/11/2023 10:23:50 am
Time(s)	Displacement(mm) Force(N)
0.0000	50.0000	-0.3448
1.7511	50.0000	-0.3437
3.4567	50.0000	-0.3445
5.1623	50.0000	-0.3445
6.8669	50.0000	-0.3451
8.5713	50.0000	-0.3459
10.2768	50.0000	-0.3443
11.9788	50.0000	-0.3442
13.6845	50.0000	-0.3446
15.3881	50.0000	-0.3425
17.0940	50.0000	-0.3451
18.7969	50.0000	-0.3467
20.4983	50.0000	-0.3418
22.2047	50.0000	-0.3461
23.9088	50.0000	-0.3437
25.6105	50.0000	-0.3445
27.3199	50.0000	-0.3442
29.0219	50.0000	-0.3448
30.7245	50.0000	-0.3450
32.4257	50.0000	-1.3552
34.1285	50.0000	-1.3672
35.8347	50.0000	-1.2151
37.5392	50.0000	-1.6638
39.2456	50.0000	-0.7174
40.9482	50.0000	0.7424
42.6523	50.0000	0.8933
44.3546	50.0000	0.9445
46.0624	50.0000	0.8392
47.7659	50.0000	0.5492
49.4704	50.0000	0.7323
51.1722	50.0000	0.7939
52.8725	50.0000	0.8282
54.5793	50.0000	0.7238
56.2824	50.0000	0.7248
57.9847	50.0000	0.7239
59.6923	50.0000	0.7228
61.3977	50.0000	0.7234
63.1012	50.0000	0.7221
64.8022	50.0000	0.7224
66.5050	50.0000	0.7228
68.2093	50.0000	0.7213
69.9111	50.0000	0.7220
71.6173	50.0000	0.7232
73.3205	50.0000	0.7199
75.0226	50.0000	0.7202
76.7267	50.0000	0.7224
78.4317	50.0000	0.7202
80.1327	50.0000	0.7201
81.8346	50.0000	0.7193
83.5407	50.0000	0.7199
85.2444	50.0000	0.7232
86.9486	50.0000	0.7232
88.6508	50.0000	0.7226
90.3527	50.0000	0.7214
92.0546	50.0000	0.7224
93.7567	50.0000	0.7219
95.4603	50.0000	0.7235
97.1628	50.0000	0.7237
98.8620	50.0000	0.7235
100.5635	50.0000	0.7247
102.2660	50.0000	0.7245
103.9675	50.0000	0.7202
105.6710	50.0000	0.7267
107.3729	50.0000	0.7225
109.0806	50.0000	0.7212
110.7828	50.0000	0.7270
112.4829	50.0000	0.7284
114.1853	50.0000	0.7494
115.8907	50.0000	2.1732
117.5930	50.0000	2.1661
119.2930	50.0000	2.1690
120.9945	50.0000	2.1730
122.7018	50.0000	2.1652
124.4055	50.0000	2.1670
126.1100	50.0000	2.1617
127.8131	50.0000	2.1603
129.5130	50.0000	2.1664
131.2131	50.0000	2.1568
132.9152	50.0000	2.1629
134.6172	50.0000	2.1662
136.3207	50.0000	2.1609
138.0256	50.0000	2.1645
139.7296	50.0000	2.1611
141.4354	50.0000	2.1675
143.1387	50.0000	2.1659
144.8432	50.0000	2.1622
146.5464	50.0000	2.1582
148.2517	50.0000	2.1602
149.9524	50.0000	2.1645
151.6539	50.0000	2.1539
153.3603	50.0000	2.1917
155.0610	50.0000	3.6207
156.7657	50.0000	3.6326
158.4686	50.0000	3.6333
160.1709	50.0000	3.6351
161.8729	50.0000	3.6303
163.5750	50.0000	3.6378
165.2790	50.0000	3.6391
166.9785	50.0000	3.6316
168.6814	50.0000	3.6310
170.3833	50.0000	3.6331
172.0833	50.0000	3.6328
173.7848	50.0000	3.6354
175.4886	50.0000	4.1715
177.1927	50.0000	2.2478
178.8952	50.0000	2.1925
180.5958	50.0000	2.1911
182.3036	50.0000	2.1932
184.0058	50.0000	2.1997
185.7133	50.0000	2.1963
187.4158	50.0000	2.1919
189.1204	50.0000	2.1980
190.8213	50.0000	2.1922
192.5213	50.0000	2.1951
194.2209	50.0000	2.1919
195.9236	50.0000	2.1954
197.6235	50.0000	2.1945
199.3260	50.0000	2.1904
201.0288	50.0000	3.5880
202.7305	50.0000	4.0790
204.4328	50.0000	4.0836
206.1368	50.0000	4.0818
207.8404	50.0000	4.0811
209.5462	50.0000	4.0780
211.2462	50.0000	4.0840
212.9462	50.0000	4.0841
214.6462	50.0000	4.0830
216.3507	50.0000	4.0806
218.0539	50.0000	4.0815
219.7598	50.0000	4.0780
221.4638	50.0000	4.1308
223.1663	50.0000	3.7859
224.8745	50.0000	5.4772
226.5812	50.0000	5.1333
228.2818	50.0000	2.6088
229.9838	50.0000	2.6120
231.6890	50.0000	2.5793
233.3920	50.0000	2.6092
235.0982	50.0000	2.6119
236.7997	50.0000	2.6106
238.5041	50.0000	2.6138
240.2032	50.0000	2.6127
241.9044	50.0000	2.6121
243.6134	50.0000	2.6104
245.3141	50.0000	2.6116
247.0165	50.0000	2.6141
248.7222	50.0000	2.6100
250.4266	50.0000	2.6114
252.1299	50.0000	2.6125
253.8341	50.0000	2.6112
255.5364	50.0000	2.6133
257.2422	50.0000	2.6084
258.9502	50.0000	2.6100
260.6542	50.0000	2.6097
262.3592	50.0000	2.6140
264.0659	50.0000	2.4835
265.7691	50.0000	3.8880
267.4726	50.0000	4.0500
269.1767	50.0000	4.0506
270.8801	50.0000	4.0496
272.5861	50.0000	4.0525
274.2868	50.0000	4.0483
275.9916	50.0000	4.0500
277.6964	50.0000	4.0466
279.3994	50.0000	4.0529
281.1022	50.0000	4.0458
282.8068	50.0000	4.0494
284.5117	50.0000	4.0509
286.2145	50.0000	4.0485
287.9175	50.0000	4.0525
289.6218	50.0000	4.0504
291.3243	50.0000	4.0526
293.0245	50.0000	4.0468
294.7245	50.0000	4.0504
296.4269	50.0000	4.0471
298.1283	50.0000	4.0500
299.8322	50.0000	4.0508
301.5325	50.0000	4.0516
303.2346	50.0000	4.0502
304.9369	50.0000	4.0477
306.6406	50.0000	4.0476
308.3469	50.0000	4.0497
310.0494	50.0000	4.0487
311.7532	50.0000	4.0522
313.4546	50.0000	4.0498
315.1547	50.0000	4.0499
316.8616	50.0000	4.0497
318.5626	50.0000	4.0510
320.2646	50.0000	4.0514
321.9721	50.0000	4.0490
323.6730	50.0000	4.0493
325.3772	50.0000	4.0468
327.0805	50.0000	4.0502
328.7821	50.0000	4.0482
330.4849	50.0000	4.0465
332.1927	50.0000	4.0469
333.8971	50.0000	4.0478
335.6016	50.0000	4.0488
337.3030	50.0000	4.0452
339.0049	50.0000	4.0478
340.7049	50.0000	4.0479
342.4045	50.0000	4.0490
344.1049	50.0000	4.0742
345.8065	50.0000	2.6105
347.5074	50.0000	2.6208
349.2121	50.0000	2.6168
350.9193	50.0000	2.6149
352.6229	50.0000	2.6160
354.3249	50.0000	2.6180
356.0273	50.0000	4.1582
357.7292	50.0000	4.4962
359.4338	50.0000	4.5052
361.1400	50.0000	4.5079
362.8433	50.0000	4.5062
364.5450	50.0000	4.5019
366.2466	50.0000	4.5050
367.9522	50.0000	4.5088
369.6552	50.0000	4.5033
371.3573	50.0000	4.5079
373.0589	50.0000	4.4993
374.7598	50.0000	4.5057
376.4652	50.0000	4.5052
378.1718	50.0000	4.4996
379.8737	50.0000	4.5029
381.5749	50.0000	4.5053
383.2774	50.0000	4.5055
384.9808	50.0000	4.5035
386.6805	50.0000	4.5040
388.3831	50.0000	4.5080
390.0862	50.0000	4.5083
391.7894	50.0000	2.6089
393.4947	50.0000	2.6108
395.1954	50.0000	2.6148
396.8978	50.0000	2.6159
398.6007	50.0000	2.6164
400.3032	50.0000	2.6180
402.0054	50.0000	2.6166
403.7055	50.0000	2.5890
405.4079	50.0000	2.6359
407.1112	50.0000	2.6837
408.8133	50.0000	2.6244
410.5155	50.0000	2.7392
412.2197	50.0000	2.7697
413.9247	50.0000	2.6155
415.6255	50.0000	1.9169
417.3280	50.0000	2.1177
419.0280	50.0000	1.9872
420.7280	50.0000	1.8989
422.4330	50.0000	1.0983
424.1379	50.0000	1.2319
425.8426	50.0000	0.7590
427.5450	50.0000	-0.3492
429.2481	50.0000	-0.3533
430.9509	50.0000	-0.3548
432.6529	50.0000	-0.3539
434.3576	50.0000	-0.3525
436.0598	50.0000	-0.3520
437.7642	50.0000	-0.3553
439.4650	50.0000	-0.3533
441.1682	50.0000	-0.3538
442.8683	50.0000	-0.3529
444.5730	50.0000	-0.3533
446.2738	50.0000	-0.3846
447.9754	50.0000	-1.4304
449.6781	50.0000	-0.8641
451.3821	50.0000	0.8979
453.0859	50.0000	0.9171
454.7877	50.0000	1.2374
456.4891	50.0000	1.0383
458.1937	50.0000	1.0856
459.8952	50.0000	1.2105
461.6024	50.0000	1.5360
463.3061	50.0000	1.5390
465.0084	50.0000	1.5379
466.7094	50.0000	1.5359
468.4141	50.0000	1.5399
470.1141	50.0000	1.5381
471.8202	50.0000	1.5388
473.5237	50.0000	1.5387
475.2255	50.0000	1.5408
476.9257	50.0000	1.5379
478.6258	50.0000	1.5363
480.3282	50.0000	1.5363
482.0328	50.0000	1.5382
483.7382	50.0000	1.5373
485.4426	50.0000	1.5384
487.1442	50.0000	1.5342
488.8480	50.0000	1.5392
490.5534	50.0000	1.5331
492.2562	50.0000	1.5373
493.9562	50.0000	1.5399
494.8558	50.0000	1.5413