File: Tinius-Olsen_Levitation_force/Preprocessed_measures/20231204_1536YBCOs1_sl9_3.txt.csv
Time(s),Displacement(mm),Force(N)
0.0,-267.335,3.02848
0.8445,-267.335,3.03738
1.646,-267.335,3.03697
2.448,-267.335,3.03192
3.2496,-267.335,3.03273
4.0514,-267.335,3.03414
4.8508,-267.199,3.07195
5.6723,-267.0,3.04102
6.4732,-267.0,3.04688
7.2737,-267.0,3.04688
8.0741,-267.0,3.04183
8.874,-267.0,3.04506
9.674,-267.0,3.04466
10.4744,-267.0,3.0485
11.2757,-267.0,3.03758
12.0792,-267.0,3.04365
12.8808,-267.0,3.05558
13.7029,-269.578,2.98784
14.5079,-270.0,2.98319
15.3107,-270.0,2.98198
16.1125,-270.0,2.98582
16.9138,-270.0,2.98764
17.7168,-270.0,2.98946
18.5196,-270.0,2.98865
19.3238,-270.0,2.99088
20.1264,-270.0,2.98764
20.9291,-270.0,2.98137
21.732,-270.0,2.97976
22.5537,-271.897,2.96136
23.3574,-277.233,2.95388
24.1594,-282.601,2.95408
24.9604,-287.938,2.93164
25.7616,-293.27,2.8724
26.5619,-298.604,2.69811
27.3638,-303.971,2.32912
28.1658,-309.303,1.58366
28.9701,-314.671,0.076766
29.7724,-315.64,-1.0393
30.5737,-315.64,-0.888471
31.374,-315.64,-0.812045
32.177,-315.64,-0.770394
32.9803,-315.64,-0.735821
33.7818,-315.64,-0.702055
34.582,-315.64,-0.676984
35.384,-315.64,-0.661012
36.1852,-315.64,-0.64241
36.9866,-315.64,-0.631088
37.7882,-315.64,-0.617744
38.5909,-315.64,-0.607634
39.3922,-315.64,-0.595099
40.1929,-315.64,-0.582968
40.9941,-315.64,-0.575285
41.7952,-315.64,-0.564164
42.5982,-315.64,-0.559716
43.398,-315.64,-0.549203
44.199,-315.64,-0.544957
45.0038,-315.64,-0.530804
45.8039,-315.64,-0.528782
46.6044,-315.64,-0.517055
47.4045,-315.64,-0.513213
48.2068,-315.64,-0.498454
49.0062,-315.64,-0.503913
49.8082,-315.64,-0.49906
50.6119,-315.64,-0.499263
51.4111,-315.64,-0.486525
52.2136,-315.64,-0.480864
53.0141,-315.64,-0.478235
53.8189,-315.64,-0.474798
54.6192,-315.64,-0.468328
55.4202,-315.64,-0.464284
56.222,-315.64,-0.460443
57.0226,-315.64,-0.455995
57.8227,-315.64,-0.453771
58.6236,-315.64,-0.447907
59.4244,-315.64,-0.448514
60.2274,-315.64,-0.440629
61.0282,-315.64,-0.439011
61.8312,-315.64,-0.436989
62.6327,-315.64,-0.427487
63.4344,-315.64,-0.429711
64.2368,-315.64,-0.429711
65.0363,-315.64,-0.421421
65.8377,-315.64,-0.417579
66.6413,-315.64,-0.420208
67.4422,-315.64,-0.417377
68.2444,-315.64,-0.410099
69.0472,-315.64,-0.414547
69.8498,-315.64,-0.408279
70.6517,-315.64,-0.403426
71.4523,-315.64,-0.39635
72.2543,-315.64,-0.395137
73.0566,-315.64,-0.397361
73.8585,-315.64,-0.400191
74.6596,-315.64,-0.392508
75.4626,-315.64,-0.390689
76.2645,-315.64,-0.390689
77.0666,-315.64,-0.388465
77.8668,-315.64,-0.380579
78.6686,-315.64,-0.377749
79.4696,-315.64,-0.375727
80.2705,-315.64,-0.376131
81.0722,-315.64,-0.370066
81.8734,-315.64,-0.371077
82.6754,-315.64,-0.374109
83.4782,-315.64,-0.369863
84.2798,-315.64,-0.371279
85.0821,-315.64,-0.366224
85.8822,-315.64,-0.363191
86.6841,-315.64,-0.362383
87.484,-315.64,-0.356317
88.2863,-315.64,-0.355913
89.086,-315.64,-0.354093
89.8866,-315.64,-0.352475
90.689,-315.64,-0.354902
91.4918,-315.64,-0.350251
92.2924,-315.64,-0.346612
93.0979,-315.64,-0.34176
93.9016,-315.64,-0.344186
94.7041,-315.64,-0.341962
95.5048,-315.64,-0.330437
96.3088,-315.64,-0.341355
97.1106,-315.64,-0.335694
97.911,-315.64,-0.341355
98.7129,-315.64,-0.331246
99.5125,-315.64,-0.327404
100.3149,-315.64,-0.326393
101.1169,-315.64,-0.328011
101.9189,-315.64,-0.327
102.7202,-315.64,-0.327202
103.5215,-315.64,-0.326596
104.3235,-315.64,-0.322956
105.1241,-315.64,-0.320732
105.9236,-315.64,-0.32053
106.7264,-315.64,-0.319317
107.5274,-315.64,-0.321339
108.3287,-315.64,-0.311229
109.1308,-315.64,-0.313858
109.9333,-315.64,-0.316486
110.733,-315.64,-0.320732
111.5348,-315.64,-0.314464
112.3356,-315.64,-0.309612
113.1385,-315.64,-0.309814
113.9424,-315.64,-0.310218
114.7418,-315.64,-0.31224
115.545,-315.64,-0.306377
116.347,-315.64,-0.302333
117.147,-315.64,-0.298492
117.9476,-315.64,-0.297481
118.7492,-315.64,-0.302738
119.552,-315.64,-0.293841
120.3534,-315.64,-0.300514
121.1564,-315.64,-0.301929
121.9567,-315.64,-0.304557
122.7577,-315.64,-0.29283
123.5585,-315.64,-0.297481
124.3595,-315.64,-0.29465
125.1638,-315.64,-0.295459
125.9666,-315.64,-0.296065
126.7694,-315.64,-0.288787
127.5737,-315.64,-0.283934
128.3798,-315.64,-0.285552
129.1829,-315.64,-0.291213
129.9844,-315.64,-0.291011
130.7848,-315.64,-0.291415
131.5848,-315.64,-0.284743
132.3849,-315.64,-0.284743
133.1855,-315.64,-0.283732
133.9885,-315.64,-0.276656
134.789,-315.64,-0.274432
135.5908,-315.64,-0.27706
136.3988,-315.64,-0.276049
137.2016,-315.64,-0.275442
138.0018,-315.64,-0.275442
138.8022,-315.64,-0.270994
139.6033,-315.64,-0.269781
140.404,-315.64,-0.274229
141.2052,-315.64,-0.270186
142.0087,-315.64,-0.267153
142.8109,-315.64,-0.267557
143.6146,-315.64,-0.261289
144.4171,-315.64,-0.265535
145.2192,-315.64,-0.259065
146.0208,-315.64,-0.263918
146.823,-315.64,-0.258054
147.6253,-315.64,-0.264322
148.4252,-315.64,-0.259065
149.2284,-315.64,-0.258257
150.0324,-315.64,-0.257044
150.8349,-315.64,-0.254011
151.6379,-315.64,-0.254617
152.4389,-315.64,-0.255628
153.2411,-315.64,-0.255628
154.0416,-315.64,-0.250574
154.8413,-315.64,-0.257448
155.6438,-315.64,-0.256033
156.4474,-315.64,-0.251787
157.2471,-315.64,-0.258257
158.0491,-315.64,-0.250169
158.853,-315.64,-0.246732
159.6548,-315.64,-0.252191
160.4553,-315.64,-0.248754
161.257,-315.64,-0.247339
162.0571,-315.64,-0.242486
162.8571,-315.64,-0.236421
163.6599,-315.64,-0.243295
164.4618,-315.64,-0.236016
165.2643,-315.64,-0.241475
166.0661,-315.64,-0.237229
166.8686,-315.64,-0.240869
167.6701,-315.64,-0.239656
168.4731,-315.64,-0.240262
169.2747,-315.64,-0.24471
170.0769,-315.64,-0.235005
170.8804,-315.64,-0.234196
171.6835,-315.64,-0.232781
172.4852,-315.64,-0.237836
173.2911,-315.64,-0.237431
174.0926,-315.64,-0.23541
174.8923,-315.64,-0.229951
175.6947,-315.64,-0.232175
176.4967,-315.64,-0.22894
177.299,-315.64,-0.224492
178.0988,-315.64,-0.22712
178.9035,-315.64,-0.228333
179.709,-315.64,-0.229142
180.5118,-315.64,-0.229546
181.3136,-315.64,-0.223481
182.1172,-315.64,-0.216
182.9207,-315.64,-0.221054
183.7234,-315.64,-0.219235
184.5269,-315.64,-0.221661
185.3277,-315.64,-0.219437
186.1299,-315.64,-0.21883
186.9308,-315.64,-0.22065
187.7318,-315.64,-0.223481
188.5373,-315.64,-0.22065
189.3387,-315.64,-0.220448
190.1398,-315.64,-0.215798
190.9408,-315.64,-0.212563
191.7452,-315.64,-0.212967
192.5455,-315.64,-0.206093
193.3454,-315.64,-0.210338
194.1478,-315.64,-0.208923
194.9514,-315.64,-0.213169
195.7542,-315.64,-0.211956
196.5546,-315.64,-0.211956
197.3581,-315.64,-0.206093
198.1596,-315.64,-0.210541
198.9619,-315.64,-0.204273
199.7622,-315.64,-0.209732
200.5628,-315.64,-0.202453
201.3637,-315.64,-0.206699
202.1655,-315.64,-0.200431
202.9684,-315.64,-0.202858
203.7694,-315.64,-0.199218
204.5733,-315.64,-0.195377
205.3757,-315.64,-0.194366
206.1797,-315.64,-0.194366
206.982,-315.64,-0.196792
207.7832,-315.64,-0.195579
208.5851,-315.64,-0.196185
209.3857,-315.64,-0.19477
210.1902,-315.64,-0.193557
210.992,-315.64,-0.194164
211.7928,-315.64,-0.194972
212.5965,-315.64,-0.194972
213.3995,-315.64,-0.195983
214.2012,-315.64,-0.19659
215.0008,-315.64,-0.191131
215.8039,-315.64,-0.186683
216.6059,-315.64,-0.188098
217.4092,-315.64,-0.188705
218.2126,-315.64,-0.192142
219.0166,-315.64,-0.192748
219.8175,-315.64,-0.190929
220.6213,-315.64,-0.19194
221.4239,-315.64,-0.190726
222.2256,-315.64,-0.181224
223.03,-315.64,-0.1883
223.8309,-315.64,-0.187896
224.6307,-315.64,-0.185065