File: Tinius-Olsen_Levitation_force/Preprocessed_measures/20231204_1640GDBCOs2_sl6_1.txt.csv
Time(s),Displacement(mm),Force(N)
0.0,-258.703,3.06184
0.6639,-258.207,3.09015
1.2662,-258.208,3.08307
1.8671,-258.208,3.08206
2.4677,-258.208,3.08489
3.0691,-258.208,3.08691
3.6693,-258.208,3.08752
4.27,-258.208,3.0944
4.8722,-258.208,3.09197
5.475,-258.208,3.08388
6.0984,-258.001,3.07741
6.7003,-258.0,3.09217
7.3009,-258.0,3.09318
7.9031,-258.0,3.09561
8.5039,-258.0,3.09743
9.1063,-258.0,3.0948
9.7065,-258.0,3.09925
10.3086,-258.0,3.0944
10.9108,-258.0,3.09844
11.5112,-258.0,3.09541
12.1138,-258.0,3.08954
12.7159,-258.0,3.09237
13.3159,-258.0,3.10572
13.9372,-259.893,3.0582
14.5385,-260.0,3.03192
15.1388,-260.0,3.04041
15.7431,-260.0,3.0297
16.3462,-260.0,3.03071
16.9472,-260.0,3.03657
17.5477,-260.0,3.0303
18.1512,-260.0,3.03313
18.7509,-260.0,3.03131
19.353,-260.0,3.03718
19.9531,-260.0,3.03495
20.5545,-260.0,3.03515
21.156,-260.0,3.03758
21.7591,-260.0,3.0392
22.3623,-260.0,3.03718
22.9648,-260.0,3.03475
23.5673,-260.0,3.0392
24.1696,-260.0,3.04041
24.7707,-260.0,3.03859
25.3728,-260.0,3.03152
25.9778,-260.0,3.05052
26.5802,-260.0,3.03596
27.203,-261.202,3.0204
27.8043,-265.238,2.91121
28.4074,-269.237,2.8732
29.0103,-273.271,2.8542
29.6126,-277.269,2.82973
30.2127,-281.303,2.80628
30.8167,-285.301,2.74562
31.4196,-289.335,2.66273
32.0206,-293.333,2.51432
32.6231,-297.332,2.22216
33.2243,-301.371,1.66069
33.8244,-305.369,0.459505
34.4261,-309.369,-2.16973
35.0281,-313.368,-7.61319
35.6287,-316.801,-16.8747
36.2285,-316.8,-15.8784
36.8278,-316.8,-15.3862
37.4303,-316.8,-15.1121
38.0311,-316.8,-14.9186
38.6337,-316.8,-14.7764
39.2333,-316.8,-14.658
39.8349,-316.8,-14.5579
40.4373,-316.8,-14.4802
41.0379,-316.8,-14.3977
41.6399,-316.8,-14.3421
42.2412,-316.8,-14.2758
42.8433,-316.8,-14.2303
43.4435,-316.8,-14.1745
44.0434,-316.8,-14.1319
44.6445,-316.8,-14.084
45.2457,-316.8,-14.0484
45.8454,-316.8,-14.0077
46.446,-316.8,-13.981
47.0469,-316.8,-13.9558
47.6485,-316.8,-13.9184
48.2493,-316.8,-13.8868
48.8524,-316.8,-13.8613
49.456,-316.8,-13.8318
50.0597,-316.8,-13.8144
50.6596,-316.8,-13.7847
51.2599,-316.8,-13.7655
51.8633,-316.8,-13.7386
52.4653,-316.8,-13.7204
53.0674,-316.8,-13.6962
53.6674,-316.8,-13.6768
54.269,-316.8,-13.6575
54.8713,-316.8,-13.6373
55.4712,-316.8,-13.6209
56.0713,-316.8,-13.607
56.6711,-316.8,-13.5888
57.2732,-316.8,-13.5706
57.8751,-316.8,-13.5514
58.4785,-316.8,-13.5419
59.0794,-316.8,-13.529
59.6827,-316.8,-13.5178
60.2835,-316.8,-13.497
60.8865,-316.8,-13.4867
61.4877,-316.8,-13.4812
62.0883,-316.8,-13.4616
62.689,-316.8,-13.4487
63.2913,-316.8,-13.439
63.8945,-316.8,-13.4216
64.495,-316.8,-13.4129
65.096,-316.8,-13.4026
65.6994,-316.8,-13.3955
66.3014,-316.8,-13.3759
66.9046,-316.8,-13.3704
67.5056,-316.8,-13.3506
68.109,-316.8,-13.345
68.7116,-316.8,-13.3353
69.3136,-316.8,-13.3266
69.9138,-316.8,-13.3183
70.5138,-316.8,-13.3124
71.1135,-316.8,-13.3029
71.7136,-316.8,-13.2879
72.3148,-316.8,-13.289
72.9169,-316.8,-13.2702
73.52,-316.8,-13.2629
74.1235,-316.8,-13.2538
74.7253,-316.8,-13.2469
75.3269,-316.8,-13.2441
75.93,-316.8,-13.2362
76.5312,-316.8,-13.2166
77.1315,-316.8,-13.2091
77.7317,-316.8,-13.1988
78.3314,-316.8,-13.1957
78.9327,-316.8,-13.1883
79.5352,-316.8,-13.1828
80.1358,-316.8,-13.1711
80.7385,-316.8,-13.1681
81.3417,-316.8,-13.1602
81.9435,-316.8,-13.1494
82.5466,-316.8,-13.1426
83.148,-316.8,-13.1337
83.7482,-316.8,-13.128
84.3504,-316.8,-13.1217
84.9513,-316.8,-13.1197
85.5534,-316.8,-13.1147
86.1537,-316.8,-13.1112
86.754,-316.8,-13.1076
87.3543,-316.8,-13.1005
87.9557,-316.8,-13.0947
88.5557,-316.8,-13.085
89.1568,-316.8,-13.07
89.7584,-316.8,-13.0643
90.3637,-316.8,-13.0639
90.9643,-316.8,-13.0597
91.5651,-316.8,-13.0518
92.1661,-316.8,-13.0471
92.7673,-316.8,-13.0368
93.3703,-316.8,-13.0326
93.9715,-316.8,-13.0314
94.5736,-316.8,-13.0277
95.1765,-316.8,-13.0186
95.7793,-316.8,-13.0101
96.3813,-316.8,-13.0116
96.9828,-316.8,-13.0073
97.5853,-316.8,-13.001
98.1901,-316.8,-12.9901
98.7911,-316.8,-12.9958
99.3916,-316.8,-12.9905
99.9939,-316.8,-12.9818
100.5938,-316.8,-12.9772
101.1947,-316.8,-12.9744
101.7951,-316.8,-12.9628
102.3959,-316.8,-12.959
102.9985,-316.8,-12.9515
103.6005,-316.8,-12.9529
104.2019,-316.8,-12.9442
104.8037,-316.8,-12.9355
105.4047,-316.8,-12.9347
106.0067,-316.8,-12.9353
106.6073,-316.8,-12.9196
107.2091,-316.8,-12.9159
107.8086,-316.8,-12.9188
108.411,-316.8,-12.9129
109.0117,-316.8,-12.9082
109.6128,-316.8,-12.9119
110.2141,-316.8,-12.8947
110.8147,-316.8,-12.8941
111.4179,-316.8,-12.8862
112.0199,-316.8,-12.8858
112.621,-316.8,-12.8791
113.2219,-316.8,-12.8814
113.8252,-316.8,-12.8706
114.4265,-316.8,-12.8686
115.0285,-316.8,-12.8674
115.6313,-316.8,-12.8591
116.2316,-316.8,-12.8571
116.8341,-316.8,-12.8537
117.4359,-316.8,-12.8506
118.0376,-316.8,-12.8484
118.6385,-316.8,-12.8389
119.244,-316.8,-12.8407
119.8459,-316.8,-12.8346
120.4486,-316.8,-12.8353
121.0507,-316.8,-12.8264
121.6515,-316.8,-12.8183
122.2529,-316.8,-12.8223
122.8541,-316.8,-12.8213
123.4541,-316.8,-12.8156
124.0542,-316.8,-12.8162
124.656,-316.8,-12.8136
125.258,-316.8,-12.8132
125.8589,-316.8,-12.8021
126.4596,-316.8,-12.8053
127.0625,-316.8,-12.8007
127.6639,-316.8,-12.791
128.2664,-316.8,-12.7887
128.8681,-316.8,-12.7871
129.4691,-316.8,-12.7811
130.0696,-316.8,-12.7792
130.6702,-316.8,-12.7819
131.2703,-316.8,-12.7714
131.8718,-316.8,-12.76
132.4727,-316.8,-12.7554
133.0741,-316.8,-12.7578
133.674,-316.8,-12.7623
134.276,-316.8,-12.7463
134.8767,-316.8,-12.7526
135.4786,-316.8,-12.7513
136.0809,-316.8,-12.7602
136.6817,-316.8,-12.7441
137.2836,-316.8,-12.7418
137.8843,-316.8,-12.7453
138.4843,-316.8,-12.735
139.0854,-316.8,-12.7202
139.6869,-316.8,-12.724
140.2903,-316.8,-12.719
140.8947,-316.8,-12.7206
141.4964,-316.8,-12.72
142.0968,-316.8,-12.7141
142.6971,-316.8,-12.7202
143.2979,-316.8,-12.7111
143.8987,-316.8,-12.7117
144.5015,-316.8,-12.7
145.102,-316.8,-12.7044
145.704,-316.8,-12.7006
146.3048,-316.8,-12.6923
146.907,-316.8,-12.6929
147.5095,-316.8,-12.6976
148.1102,-316.8,-12.6879
148.7133,-316.8,-12.685
149.3142,-316.8,-12.6812
149.9145,-316.8,-12.6862
150.5153,-316.8,-12.6788
151.1163,-316.8,-12.6773
151.7171,-316.8,-12.6775
152.317,-316.8,-12.667
152.9184,-316.8,-12.6674
153.5202,-316.8,-12.6769
154.1261,-316.8,-12.6741
154.7273,-316.8,-12.6596
155.3289,-316.8,-12.6626
155.9309,-316.8,-12.6515
156.5319,-316.8,-12.6547
157.1349,-316.8,-12.6533
157.7359,-316.8,-12.6482
158.3377,-316.8,-12.6438
158.938,-316.8,-12.65
159.5415,-316.8,-12.6393
160.1422,-316.8,-12.6438
160.7442,-316.8,-12.644
161.344,-316.8,-12.6337
161.9461,-316.8,-12.631
162.5497,-316.8,-12.6288
163.1703,-314.233,-12.6306
163.7738,-310.234,-1.91679
164.3744,-306.234,2.23369
164.9743,-302.201,3.37746
165.5756,-298.2,3.57277
166.1773,-294.201,3.49129
166.7769,-290.197,3.36067
167.3777,-286.196,3.25513
167.9797,-282.197,3.16557
168.5824,-278.163,3.1037
169.1842,-274.164,3.0675
169.784,-270.163,3.0303
170.3847,-266.799,3.01615
170.9859,-266.799,3.01918
171.5869,-266.8,3.03232
172.1885,-266.8,3.03778
172.7909,-266.8,3.02687
173.3904,-266.8,3.01878
173.9929,-266.8,3.021
174.5923,-266.8,3.02222
175.1966,-266.8,3.01756
175.7972,-266.8,3.01959
176.3997,-266.8,3.02323
177.0023,-266.8,3.02565
177.6047,-266.8,3.02424
178.2048,-266.8,3.01756
178.8051,-266.8,3.02141
179.4078,-266.8,3.0303
179.6081,-266.8,3.02403