File: Tinius-Olsen_Levitation_force/Preprocessed_measures/20231204_1649GDBCOs2_sl6_3.txt.csv
Time(s),Displacement(mm),Force(N)
0.0,-266.928,3.05335
0.4203,-269.357,3.03374
0.8213,-272.023,3.03617
1.2233,-274.689,3.04466
1.6255,-277.39,3.05315
2.0272,-280.055,3.07923
2.4276,-282.721,3.11138
2.8271,-285.387,3.14211
3.2281,-288.053,3.19246
3.6294,-290.759,3.2339
4.0306,-293.424,3.26908
4.4317,-296.09,3.30487
4.8343,-298.791,3.27798
5.235,-301.46,3.1874
5.6358,-304.125,2.87907
6.0376,-306.791,2.17324
6.4373,-309.457,0.653805
6.8389,-312.158,-2.29488
7.2414,-314.823,-7.70639
7.6421,-316.801,-13.3435
8.0424,-316.8,-13.0647
8.4433,-316.8,-12.9596
8.8439,-316.8,-12.8925
9.2433,-316.8,-12.8498
9.6461,-316.8,-12.813
10.0461,-316.8,-12.7811
10.4473,-316.8,-12.7564
10.8473,-316.8,-12.7433
11.2485,-316.8,-12.7172
11.6483,-316.8,-12.7079
12.0487,-316.8,-12.6879
12.4487,-316.8,-12.6769
12.8494,-316.8,-12.6646
13.2493,-316.8,-12.6509
13.6509,-316.8,-12.6472
14.0508,-316.8,-12.6345
14.4511,-316.8,-12.623
14.8517,-316.8,-12.6092
15.2547,-316.8,-12.6056
15.6546,-316.8,-12.6015
16.0559,-316.8,-12.5866
16.4553,-316.8,-12.5754
16.8558,-316.8,-12.5734
17.2562,-316.8,-12.5676
17.6558,-316.8,-12.5514
18.0553,-316.8,-12.5566
18.4567,-316.8,-12.5467
18.8571,-316.8,-12.5467
19.2573,-316.8,-12.5433
19.6599,-316.8,-12.5326
20.0596,-316.8,-12.5291
20.4616,-316.8,-12.5225
20.8614,-316.8,-12.5277
21.2637,-316.8,-12.5132
21.6648,-316.8,-12.5045
22.0665,-316.8,-12.5081
22.467,-316.8,-12.4992
22.8675,-316.8,-12.4934
23.2678,-316.8,-12.4881
23.6698,-316.8,-12.4863
24.0696,-316.8,-12.4798
24.4695,-316.8,-12.4748
24.871,-316.8,-12.4677
25.2715,-316.8,-12.4705
25.6719,-316.8,-12.4644
26.0736,-316.8,-12.4616
26.4756,-316.8,-12.4602
26.8771,-316.8,-12.4594
27.278,-316.8,-12.4525
27.6791,-316.8,-12.4537
28.0788,-316.8,-12.4485
28.4794,-316.8,-12.4458
28.8794,-316.8,-12.4428
29.2794,-316.8,-12.4404
29.6795,-316.8,-12.4335
30.0795,-316.8,-12.4333
30.4823,-316.8,-12.4278
30.8815,-316.8,-12.4319
31.2831,-316.8,-12.4222
31.6827,-316.8,-12.4244
32.0844,-316.8,-12.4256
32.4846,-316.8,-12.4137
32.8873,-316.8,-12.4135
33.2865,-316.8,-12.4101
33.687,-316.8,-12.4058
34.0877,-316.8,-12.4117
34.4873,-316.8,-12.409
34.8883,-316.8,-12.4022
35.2875,-316.8,-12.4131
35.6887,-316.8,-12.4048
36.09,-316.8,-12.4022
36.4897,-316.8,-12.3919
36.8923,-316.8,-12.3915
37.2919,-316.8,-12.3965
37.6941,-316.8,-12.387
38.0941,-316.8,-12.3838
38.4966,-316.8,-12.3852
38.8981,-316.8,-12.3761
39.2992,-316.8,-12.3747
39.7028,-316.8,-12.3769
40.1027,-316.8,-12.3789
40.5026,-316.8,-12.3702
40.9049,-316.8,-12.3765
41.305,-316.8,-12.365
41.7066,-316.8,-12.3613
42.1083,-316.8,-12.3607
42.5092,-316.8,-12.3601
42.9093,-316.8,-12.3603
43.3093,-316.8,-12.3577
43.709,-316.8,-12.3502
44.1093,-316.8,-12.3609
44.5096,-316.8,-12.354
44.9112,-316.8,-12.3538
45.3132,-316.8,-12.3516
45.7133,-316.8,-12.3494
46.1153,-316.8,-12.349
46.5172,-316.8,-12.3441
46.9166,-316.8,-12.3415
47.3175,-316.8,-12.3443
47.7178,-316.8,-12.3375
48.1188,-316.8,-12.3431
48.5198,-316.8,-12.3365
48.9196,-316.8,-12.3462
49.3199,-316.8,-12.3365
49.7199,-316.8,-12.3419
50.1214,-316.8,-12.3322
50.5219,-316.8,-12.331
50.9215,-316.8,-12.3249
51.3216,-316.8,-12.3259
51.7232,-316.8,-12.3185
52.1236,-316.8,-12.3217
52.5255,-316.8,-12.3134
52.9251,-316.8,-12.3211
53.3251,-316.8,-12.313
53.7271,-316.8,-12.316
54.1277,-316.8,-12.3156
54.5277,-316.8,-12.3108
54.9278,-316.8,-12.3071
55.3286,-316.8,-12.3152
55.7296,-316.8,-12.3082
56.1299,-316.8,-12.3132
56.5299,-316.8,-12.31
56.9297,-316.8,-12.3023
57.3322,-316.8,-12.3063
57.732,-316.8,-12.3043
58.1351,-316.8,-12.3088
58.5368,-316.8,-12.2986
58.9383,-316.8,-12.3045
59.3399,-316.8,-12.2997
59.741,-316.8,-12.2999
60.1421,-316.8,-12.2997
60.5435,-316.8,-12.2982
60.9441,-316.8,-12.2956
61.3451,-316.8,-12.2908
61.7464,-316.8,-12.2877
62.1461,-316.8,-12.2871
62.5469,-316.8,-12.2881
62.9495,-316.8,-12.2908
63.3488,-316.8,-12.2906
63.7499,-316.8,-12.2861
64.1505,-316.8,-12.2833
64.55,-316.8,-12.28
64.9508,-316.8,-12.2803
65.3521,-316.8,-12.2823
65.7527,-316.8,-12.2803
66.1537,-316.8,-12.2734
66.5556,-316.8,-12.2728
66.9559,-316.8,-12.2645
67.3577,-316.8,-12.272
67.7582,-316.8,-12.2689
68.1584,-316.8,-12.2623
68.5614,-316.8,-12.2592
68.9618,-316.8,-12.2655
69.3636,-316.8,-12.2663
69.7631,-316.8,-12.2655
70.1636,-316.8,-12.2621
70.5677,-316.8,-12.2667
70.9698,-316.8,-12.2616
71.3701,-316.8,-12.253
71.7698,-316.8,-12.2519
72.1699,-316.8,-12.2548
72.5713,-316.8,-12.2566
72.971,-316.8,-12.2475
73.3707,-316.8,-12.2566
73.7735,-316.8,-12.2526
74.1736,-316.8,-12.2538
74.5735,-316.8,-12.2588
74.9749,-316.8,-12.2485
75.376,-316.8,-12.2507
75.7792,-316.8,-12.2463
76.179,-316.8,-12.2513
76.5792,-316.8,-12.2493
76.9794,-316.8,-12.242
77.3788,-316.8,-12.2465
77.779,-316.8,-12.2455
78.1795,-316.8,-12.238
78.5801,-316.8,-12.2392
78.9826,-316.8,-12.2404
79.383,-316.8,-12.2398
79.7818,-316.8,-12.2376
80.1845,-316.8,-12.2331
80.5852,-316.8,-12.2384
80.9869,-316.8,-12.2226
81.3878,-316.8,-12.2319
81.7889,-316.8,-12.2346
82.1918,-316.8,-12.2317
82.5937,-316.8,-12.2295
82.9946,-316.8,-12.2285
83.394,-316.8,-12.2261
83.7955,-316.8,-12.2242
84.1963,-316.8,-12.2253
84.5984,-316.8,-12.2275
85.0013,-316.8,-12.223
85.4041,-316.8,-12.2204
85.8051,-316.8,-12.2214
86.2054,-316.8,-12.2196
86.6064,-316.8,-12.2244
87.0062,-316.8,-12.2196
87.4063,-316.8,-12.2236
87.808,-316.8,-12.2206
88.2112,-316.8,-12.2123
88.6129,-316.8,-12.2174
89.0147,-316.8,-12.218
89.4146,-316.8,-12.2164
89.814,-316.8,-12.222
90.2148,-316.8,-12.2178
90.6157,-316.8,-12.2127
91.0165,-316.8,-12.2109
91.4175,-316.8,-12.2107
91.8175,-316.8,-12.2101
92.2186,-316.8,-12.2103
92.6209,-316.8,-12.2164
93.0226,-316.8,-12.2006
93.4242,-316.8,-12.204
93.8261,-316.8,-12.2048
94.2278,-316.8,-12.2075
94.6289,-316.8,-12.2093
95.03,-316.8,-12.2077
95.4302,-316.8,-12.2034
95.8311,-316.8,-12.204
96.2345,-316.8,-12.1982
96.6371,-316.8,-12.1972
97.0377,-316.8,-12.1976
97.4381,-316.8,-12.1986
97.8393,-316.8,-12.1945
98.2391,-316.8,-12.1978
98.6391,-316.8,-12.1953
99.0418,-316.8,-12.1905
99.443,-316.8,-12.1929
99.8649,-314.892,-9.54002
100.2649,-312.226,-1.992
100.6659,-309.56,1.44718
101.0651,-306.894,2.94336
101.4671,-304.228,3.52505
101.8685,-301.528,3.67285
102.2687,-298.862,3.66638
102.6697,-296.195,3.57984
103.0691,-293.53,3.47572
103.47,-290.861,3.38554
103.8702,-288.195,3.29739
104.2724,-285.529,3.2337
104.6729,-282.863,3.17507
105.0724,-280.197,3.1318
105.4741,-277.497,3.10612
105.8744,-274.831,3.07438
106.276,-272.162,3.05012
106.6763,-269.497,3.06103
107.0792,-266.837,3.10734
107.4821,-266.799,3.13847
107.8853,-266.8,3.13908
108.288,-266.8,3.14009
108.6894,-266.8,3.13766
109.0901,-266.8,3.12796
109.4909,-266.8,3.13908