File: Tinius-Olsen_Levitation_force/Preprocessed_measures/20231204_0933cut1_lowN_1.txt.csv
Time(s),Displacement(mm),Force(N)
0.0,-216.137,3.34612
0.1286,-216.584,3.37685
0.2303,-217.271,3.37402
0.3301,-217.955,3.37887
0.4298,-218.604,3.38251
0.5296,-219.288,3.3813
0.6303,-219.938,3.37867
0.73,-220.622,3.38312
0.8298,-221.271,3.37604
0.9307,-221.955,3.37806
1.0313,-222.604,3.37503
1.131,-223.287,3.37503
1.2315,-223.971,3.37139
1.3309,-224.62,3.3726
1.4308,-225.27,3.37402
1.531,-225.956,3.37827
1.6306,-226.605,3.37887
1.7317,-227.289,3.38049
1.8321,-227.973,3.37685
1.9323,-228.622,3.37968
2.0319,-229.305,3.37422
2.1321,-229.955,3.37948
2.2317,-230.638,3.37948
2.3322,-231.288,3.37907
2.4323,-231.971,3.37543
2.5321,-232.621,3.37665
2.6318,-233.304,3.3724
2.732,-233.954,3.37503
2.8321,-234.637,3.37907
2.9319,-235.287,3.37402
3.0326,-235.97,3.37584
3.1322,-236.62,3.37321
3.2318,-237.304,3.37564
3.332,-237.953,3.37645
3.4327,-238.636,3.37604
3.5327,-239.286,3.3724
3.6328,-239.97,3.37827
3.733,-240.619,3.37503
3.8338,-241.302,3.37099
3.934,-241.986,3.37806
4.0348,-242.636,3.37483
4.1349,-243.319,3.37806
4.2349,-243.969,3.37341
4.3355,-244.652,3.37746
4.4349,-245.302,3.37907
4.5349,-245.985,3.38453
4.6349,-246.634,3.37564
4.7349,-247.318,3.37301
4.8349,-247.968,3.37584
4.9349,-248.651,3.37523
5.0357,-249.301,3.37523
5.1361,-249.986,3.37685
5.237,-250.67,3.36856
5.3368,-251.319,3.36735
5.4375,-252.003,3.37806
5.5373,-252.653,3.37422
5.637,-253.336,3.37078
5.7372,-253.985,3.37078
5.8373,-254.67,3.36816
5.9371,-255.319,3.36816
6.0374,-256.003,3.37766
6.1369,-256.652,3.37584
6.2374,-257.335,3.36229
6.3373,-257.985,3.36714
6.4374,-258.668,3.38029
6.5374,-259.318,3.36816
6.637,-260.001,3.36836
6.7372,-260.651,3.36856
6.8371,-261.334,3.36876
6.9374,-261.984,3.36654
7.0373,-262.667,3.36573
7.1373,-263.316,3.36816
7.2374,-264.0,3.37382
7.3373,-264.649,3.36189
7.4374,-265.333,3.36249
7.537,-265.983,3.3629
7.6372,-266.666,3.3633
7.7374,-267.316,3.36007
7.8374,-267.999,3.36735
7.9373,-268.683,3.35865
8.0371,-269.332,3.35987
8.1369,-269.982,3.35683
8.2372,-270.665,3.36169
8.3375,-271.315,3.34875
8.4373,-271.998,3.35319
8.5373,-272.648,3.34814
8.6374,-273.331,3.35239
8.7374,-273.981,3.34733
8.838,-274.664,3.34713
8.9389,-275.348,3.33864
9.0399,-275.997,3.33601
9.1398,-276.681,3.3356
9.2413,-277.365,3.32893
9.342,-278.014,3.32913
9.4431,-278.698,3.32064
9.5432,-279.347,3.32226
9.6438,-280.033,3.32226
9.7451,-280.716,3.31377
9.845,-281.366,3.30629
9.9457,-282.049,3.29416
10.0464,-282.733,3.29557
10.1468,-283.383,3.28546
10.2471,-284.066,3.27899
10.348,-284.75,3.26464
10.4487,-285.399,3.261
10.5483,-286.083,3.24401
10.6485,-286.732,3.2331
10.7483,-287.382,3.21854
10.848,-288.068,3.20358
10.9491,-288.751,3.19043
11.0488,-289.401,3.18497
11.1494,-290.084,3.14656
11.2501,-290.734,3.13645
11.3509,-291.417,3.10956
11.4524,-292.101,3.08105
11.5526,-292.75,3.04911
11.6527,-293.436,3.0204
11.753,-294.086,2.98238
11.8533,-294.769,2.93851
11.9533,-295.419,2.89827
12.0531,-296.105,2.85177
12.153,-296.754,2.79374
12.2529,-297.438,2.73349
12.3535,-298.087,2.66758
12.453,-298.771,2.58792
12.5548,-299.42,2.50866
12.6548,-300.106,2.41181
12.7545,-300.79,2.31477
12.854,-301.44,2.19264
12.9539,-302.089,2.07174
13.0546,-302.775,1.91787
13.1539,-303.458,1.76098
13.2543,-304.108,1.57254
13.3539,-304.757,1.36853
13.4549,-305.441,1.14572
13.5559,-306.124,0.892183
13.6567,-306.773,0.598811
13.7569,-307.457,0.279963
13.8574,-308.107,-0.0815459
13.9571,-308.79,-0.502295
14.0573,-309.474,-0.959236
14.1575,-310.123,-1.47562
14.2575,-310.773,-2.05488
14.3574,-311.459,-2.71563
14.4576,-312.142,-3.46574
14.5578,-312.792,-4.32685
14.6576,-313.441,-5.30038
14.758,-314.125,-6.42211
14.8587,-314.808,-7.71832
14.9591,-315.492,-9.1961
15.0594,-316.003,-9.80347
15.1599,-316.002,-8.9367
15.2599,-316.002,-8.46864
15.3597,-316.002,-8.16859
15.4597,-316.002,-7.95427
15.5595,-316.001,-7.78504
15.6595,-316.001,-7.6427
15.7599,-316.001,-7.52847
15.861,-316.001,-7.42576
15.9624,-316.001,-7.34367
16.0621,-316.001,-7.27291
16.1639,-316.001,-7.19466
16.2634,-316.001,-7.11682
16.3633,-316.001,-7.06567
16.4633,-316.001,-7.01916
16.5631,-316.001,-6.96801
16.6633,-316.001,-6.91443
16.763,-316.001,-6.88066
16.8639,-316.001,-6.83962
16.9632,-316.001,-6.8103
17.063,-316.001,-6.76845
17.163,-316.001,-6.72721
17.264,-316.001,-6.69971
17.3645,-316.001,-6.67443
17.4649,-316.001,-6.64593
17.5645,-316.001,-6.62187
17.6647,-316.001,-6.59902
17.764,-316.001,-6.56343
17.8647,-316.001,-6.5513
17.9649,-316.001,-6.51471
18.0652,-316.001,-6.49489
18.1651,-316.001,-6.46072
18.2653,-316.001,-6.45304
18.3653,-316.001,-6.42332
18.4653,-316.001,-6.41826
18.5652,-316.001,-6.40613
18.6652,-316.001,-6.36853
18.7653,-316.001,-6.35235
18.8653,-316.001,-6.33901
18.9653,-316.001,-6.33234
19.0653,-316.001,-6.29837
19.1653,-316.001,-6.29331
19.2653,-316.001,-6.26885
19.3655,-315.853,-6.16998
19.4877,-315.439,-3.69441
19.5874,-314.789,-0.715198
19.6877,-314.105,1.27351
19.7877,-313.456,2.35156
19.8877,-312.772,2.72338
19.9876,-312.089,3.13605
20.0883,-311.439,3.2612
20.1889,-310.756,3.33823
20.2889,-310.106,3.40435
20.3889,-309.457,3.45186
20.4889,-308.771,3.45085
20.5881,-308.121,3.44438
20.6896,-307.438,3.43569
20.7902,-306.754,3.4367
20.8911,-306.071,3.4367
20.9919,-305.421,3.44013
21.0911,-304.738,3.43912
21.1915,-304.089,3.43831
21.2914,-303.439,3.44175
21.3911,-302.753,3.43569
21.4918,-302.103,3.43933
21.5922,-301.417,3.43771
21.6922,-300.734,3.4367
21.7927,-300.084,3.43366
21.8924,-299.401,3.43649
21.9921,-298.751,3.43387
22.0927,-298.068,3.42659
22.1932,-297.418,3.43306
22.2938,-296.735,3.43528
22.3939,-296.051,3.43124
22.4943,-295.402,3.43427
22.5946,-294.718,3.43225
22.6942,-294.069,3.43184
22.795,-293.385,3.42942
22.8951,-292.736,3.42679
22.9954,-292.052,3.42922
23.0954,-291.402,3.43872
23.1954,-290.719,3.43245
23.2954,-290.069,3.43508
23.3954,-289.386,3.43387
23.4954,-288.737,3.43387
23.5954,-288.053,3.42719
23.6954,-287.404,3.43164
23.7954,-286.718,3.43083
23.8954,-286.068,3.43467
23.9954,-285.384,3.43467
24.0956,-284.735,3.43286
24.1953,-284.051,3.4278
24.2971,-283.368,3.42497
24.3968,-282.718,3.42881
24.4964,-282.069,3.42901
24.5973,-281.385,3.4276
24.6975,-280.702,3.4276
24.7975,-280.052,3.43083
24.8976,-279.369,3.43002
24.9975,-278.719,3.43548
25.0976,-278.036,3.43852
25.1976,-277.386,3.43002
25.2978,-276.703,3.43083
25.3977,-276.053,3.43467
25.4977,-275.37,3.43225
25.5979,-274.721,3.42477