File: Tinius-Olsen_Levitation_force/Preprocessed_measures/20231204_1051cut1_lowN_2.txt.csv
Time(s),Displacement(mm),Force(N)
0.0,49.848,3.35886
1.4433,40.648,3.40131
2.848,31.28,3.38979
4.2493,21.947,3.39282
5.6493,12.611,3.38676
7.0513,3.245,3.38817
8.4528,-6.085,3.39242
9.8579,-15.452,3.38939
11.2594,-24.786,3.37786
12.6622,-34.156,3.38575
14.0649,-43.487,3.38817
15.4664,-52.855,3.38433
16.8681,-62.188,3.39343
18.2689,-71.553,3.39343
19.6696,-80.885,3.3906
21.0718,-90.216,3.39727
22.4718,-99.549,3.38595
23.8749,-108.914,3.40435
25.2777,-118.248,3.3908
26.6842,-127.65,3.38433
28.0874,-136.983,3.40212
29.4897,-146.348,3.37968
30.8897,-155.679,3.39302
32.2917,-165.011,3.39788
33.6918,-174.342,3.38979
35.0955,-183.707,3.39666
36.4946,-193.04,3.39808
37.8962,-202.371,3.39282
39.2961,-211.702,3.3908
40.6978,-221.067,3.39262
42.0984,-230.399,3.39626
43.4999,-239.73,3.39646
44.8999,-249.061,3.38453
46.3039,-258.431,3.38979
47.7069,-267.796,3.37867
49.11,-277.127,3.35158
50.5125,-286.493,3.25109
51.9125,-295.826,2.90899
53.3172,-305.194,1.34043
54.7178,-314.527,-6.73469
56.1201,-316.0,-7.50097
57.5225,-316.0,-7.00865
58.923,-316.0,-6.83416
60.3241,-316.0,-6.73266
61.7247,-316.0,-6.63016
63.129,-316.0,-6.57557
64.5296,-316.0,-6.53493
65.9304,-316.0,-6.49368
67.3323,-316.0,-6.46376
68.734,-316.0,-6.42352
70.1374,-316.0,-6.39218
71.5381,-316.0,-6.375
72.941,-316.0,-6.33193
74.3432,-316.0,-6.33193
75.7453,-316.0,-6.28806
77.1483,-316.0,-6.29675
78.5505,-316.0,-6.27411
79.953,-316.0,-6.25652
81.353,-316.0,-6.21891
82.7528,-316.0,-6.21325
84.1563,-316.0,-6.17241
85.5575,-316.0,-6.14855
86.9588,-316.0,-6.11034
88.3607,-316.0,-6.10791
89.762,-316.0,-6.0699
91.1642,-316.0,-6.06868
92.5713,-316.0,-6.00904
93.9708,-316.0,-5.9959
95.3731,-316.0,-5.96638
96.7733,-316.0,-5.92129
98.1767,-316.0,-5.90835
99.5809,-316.0,-5.87277
100.9824,-316.0,-5.84042
102.3833,-316.0,-5.81171
103.7834,-316.0,-5.78987
105.1848,-316.0,-5.75752
106.5855,-316.0,-5.73447
107.9862,-316.0,-5.70273
109.3881,-316.0,-5.63803
110.7911,-316.0,-5.59011
112.1911,-316.0,-5.55453
113.5911,-316.0,-5.46738
114.9935,-316.0,-5.44737
116.3943,-316.0,-5.39358
117.7952,-316.0,-5.35113
119.2011,-316.0,-5.30179
120.607,-316.0,-5.25246
122.0101,-316.0,-5.23285
123.4112,-316.0,-5.20434
124.8128,-316.0,-5.16269
126.2136,-316.0,-5.11619
127.6171,-316.0,-5.05978
129.0185,-316.0,-5.01772
130.4188,-316.0,-4.97162
131.823,-316.0,-4.93644
133.2234,-316.0,-4.88953
134.6239,-316.0,-4.85496
136.0237,-316.0,-4.80522
137.4247,-316.0,-4.76014
138.8244,-316.0,-4.70777
140.2282,-316.0,-4.67926
141.6317,-316.0,-4.64287
143.0341,-316.0,-4.57675
144.4341,-316.0,-4.52924
145.8358,-316.0,-4.49224
147.2379,-316.0,-4.43684
148.6399,-316.0,-4.37841
150.0416,-316.0,-4.32442
151.4418,-316.0,-4.27812
152.8418,-316.0,-4.22737
154.2443,-316.0,-4.18896
155.6447,-316.0,-4.13619
157.0488,-316.0,-4.082
158.4498,-316.0,-4.01427
159.8534,-316.0,-3.94391
161.2542,-316.0,-3.89801
162.6543,-316.0,-3.8224
164.0569,-316.0,-3.76518
165.462,-316.0,-3.69017
166.8621,-316.0,-3.62425
168.2623,-316.0,-3.52923
169.6645,-316.0,-3.46533
171.066,-316.0,-3.37476
172.4674,-316.0,-3.30884
173.8709,-316.0,-3.24576
175.2764,-316.0,-3.15983
176.6796,-316.0,-3.06743
178.0804,-316.0,-3.00152
179.4804,-316.0,-2.88648
180.8826,-316.0,-2.78619
182.283,-316.0,-2.71098
183.6881,-316.0,-2.64021
185.0897,-316.0,-2.55489
186.4904,-316.0,-2.48049
187.891,-316.0,-2.4263
189.2925,-316.0,-2.37757
190.6945,-316.0,-2.29326
192.097,-316.0,-2.2506
193.4998,-316.0,-2.18327
194.9014,-315.999,-2.14203
196.3042,-316.0,-2.09209
197.7051,-316.0,-2.04841
199.1065,-316.0,-2.0011
200.5095,-316.0,-1.96066
201.9135,-316.0,-1.92286
203.3151,-316.0,-1.85876
204.7196,-316.0,-1.82823
206.1228,-316.0,-1.78193
207.5239,-316.0,-1.73786
208.9258,-316.0,-1.70975
210.3284,-316.0,-1.66588
211.7317,-316.0,-1.63049
213.1329,-316.0,-1.58763
214.5329,-316.0,-1.56499
215.9353,-316.0,-1.52152
217.3379,-316.0,-1.49523
218.7436,-316.0,-1.46915
220.143,-316.0,-1.45803
221.543,-316.0,-1.43175
222.9451,-316.0,-1.40526
224.3451,-316.0,-1.38261
225.7466,-316.0,-1.35815
227.1487,-316.0,-1.32418
228.5508,-316.0,-1.32903
229.9556,-316.0,-1.31084
231.3556,-316.0,-1.28152
232.7569,-316.0,-1.27606
234.1605,-316.0,-1.24412
235.5611,-316.0,-1.23401
236.9633,-316.0,-1.22875
238.3649,-316.0,-1.20328
239.7657,-316.0,-1.18892
241.1662,-316.0,-1.19499
242.5682,-316.0,-1.15859
243.9722,-316.0,-1.14646
245.3758,-316.0,-1.14363
246.7756,-316.0,-1.12483
248.1758,-316.0,-1.13312
249.5782,-316.0,-1.11896
250.9791,-316.0,-1.10926
252.3812,-316.0,-1.08864
253.7836,-316.0,-1.07853
255.1905,-316.0,-1.07064
256.5935,-316.0,-1.07468
257.9975,-316.0,-1.05891
259.3988,-316.0,-1.04638
260.8023,-316.0,-1.03324
262.2037,-316.0,-1.03789
263.606,-316.0,-1.02838
265.0058,-316.0,-1.01767
266.4081,-316.0,-1.01241
267.8112,-316.0,-1.0025
269.2145,-316.0,-0.999471
270.619,-316.0,-0.991788
272.0228,-316.0,-0.992395
273.426,-316.0,-0.986531
274.8262,-316.0,-0.973996
276.2277,-316.0,-0.963887
277.6327,-316.0,-0.964089
279.034,-316.0,-0.966111
280.4344,-316.0,-0.963482
281.834,-316.0,-0.91981
283.234,-316.0,-0.936794
284.6375,-316.0,-0.928504
286.04,-316.0,-0.911925
287.442,-316.0,-0.902624
288.8441,-316.0,-0.918395
290.2443,-316.0,-0.898378
291.6442,-316.0,-0.901815
293.0441,-316.0,-0.896154
294.4443,-316.0,-0.882001
295.8467,-316.0,-0.880384
297.2499,-316.0,-0.867242
298.6533,-316.0,-0.854908
300.0542,-316.0,-0.873105
301.4602,-316.0,-0.851471
302.8642,-316.0,-0.852886
304.2662,-316.0,-0.833476
305.6667,-316.0,-0.819323
307.0711,-316.0,-0.823974
308.4722,-316.0,-0.827411
309.8746,-316.0,-0.821143
311.276,-316.0,-0.817706
312.6785,-316.0,-0.808001
314.0819,-316.0,-0.809012
315.4846,-316.0,-0.801127
316.8881,-316.0,-0.805979
318.2904,-316.0,-0.792028
319.6936,-316.0,-0.791826
321.0947,-316.0,-0.783132
322.4979,-316.0,-0.781717
323.902,-316.0,-0.766553
325.3046,-316.0,-0.768777
326.7063,-316.0,-0.7617
328.1068,-316.0,-0.761094
329.5073,-316.0,-0.753613
330.9069,-316.0,-0.753006
332.3109,-316.0,-0.753209
333.7168,-316.0,-0.741077
335.1193,-316.0,-0.750378
336.5226,-316.0,-0.735618
337.925,-316.0,-0.719848
339.3274,-316.0,-0.729351
340.7298,-316.0,-0.727127
342.1309,-316.0,-0.707312
343.5337,-316.0,-0.707514
344.9357,-316.0,-0.693564
346.3351,-316.0,-0.705695
347.7352,-316.0,-0.690126
349.1352,-316.0,-0.694979
350.5387,-316.0,-0.687094
351.9415,-316.0,-0.681635
353.3433,-316.0,-0.684465
354.7459,-316.0,-0.671121
356.1473,-316.0,-0.675367
357.5477,-316.0,-0.666875
358.9478,-316.0,-0.659799
360.349,-316.0,-0.651509
361.7499,-316.0,-0.647667
363.1536,-316.0,-0.656766
364.5578,-316.0,-0.659799
365.9576,-316.0,-0.654137
367.3606,-316.0,-0.643017
368.7649,-316.0,-0.63958
370.1655,-316.0,-0.642815
371.5674,-316.0,-0.639176
372.9679,-316.0,-0.640995
374.3712,-316.0,-0.618957
375.7729,-316.0,-0.637962
377.1757,-316.0,-0.599951
378.5781,-316.0,-0.630684
379.978,-316.0,-0.617339
381.3813,-316.0,-0.615115
382.7867,-316.0,-0.616935
384.1906,-316.0,-0.598738
385.5934,-316.0,-0.599951
386.9948,-316.0,-0.596716
388.3954,-316.0,-0.600558
389.7976,-316.0,-0.593481
391.2016,-316.0,-0.586405
392.6037,-316.0,-0.584585
394.0054,-316.0,-0.58317
395.4082,-316.0,-0.572858
396.1096,-316.0,-0.586607