File: Tinius-Olsen_Levitation_force/Preprocessed_measures/20231204_1653GDBCOs2_sl6_5.txt.csv
Time(s),Displacement(mm),Force(N)
0.0,-266.952,3.14717
1.7449,-278.173,3.08873
3.4509,-289.558,3.23411
5.1555,-300.939,3.24947
6.8641,-312.321,-2.37899
8.5686,-316.8,-12.7991
10.2728,-316.8,-12.6357
11.978,-316.8,-12.5581
13.6817,-316.8,-12.5053
15.3879,-316.8,-12.4754
17.0919,-316.8,-12.4402
18.7991,-316.8,-12.4103
20.5044,-316.8,-12.3817
22.2086,-316.8,-12.3686
23.9118,-316.8,-12.3494
25.6135,-316.8,-12.3377
27.3172,-316.8,-12.3191
29.0195,-316.8,-12.312
30.7232,-316.8,-12.2995
32.4321,-316.8,-12.2922
34.1379,-316.8,-12.278
35.8462,-316.8,-12.2687
37.5508,-316.8,-12.2495
39.2528,-316.8,-12.2483
40.9599,-316.8,-12.2449
42.6651,-316.8,-12.2362
44.3704,-316.8,-12.2236
46.0729,-316.8,-12.2139
47.7752,-316.8,-12.2127
49.4799,-316.8,-12.205
51.1864,-316.8,-12.1972
52.8888,-316.8,-12.1925
54.5959,-316.8,-12.1885
56.2984,-316.8,-12.1836
58.0051,-316.8,-12.1808
59.71,-316.8,-12.1697
61.4166,-316.8,-12.167
63.1196,-316.8,-12.162
64.8212,-316.8,-12.1547
66.5234,-316.8,-12.1498
68.2254,-316.8,-12.145
69.9332,-316.8,-12.1401
71.6386,-316.8,-12.1335
73.3425,-316.8,-12.1284
75.0458,-316.8,-12.1266
76.7512,-316.8,-12.1254
78.4582,-316.8,-12.1201
80.1626,-316.8,-12.1136
81.8656,-316.8,-12.1183
83.5692,-316.8,-12.1074
85.2721,-316.8,-12.1046
86.9794,-316.8,-12.1015
88.6829,-316.8,-12.0993
90.3857,-316.8,-12.0963
92.0907,-316.8,-12.0934
93.7944,-316.8,-12.0851
95.5011,-316.8,-12.0825
97.2037,-316.8,-12.0769
98.9115,-316.8,-12.0791
100.6163,-316.8,-12.0734
102.3238,-316.8,-12.0704
104.0271,-316.8,-12.0647
105.7342,-316.8,-12.0655
107.4388,-316.8,-12.0623
109.1434,-316.8,-12.0613
110.8537,-316.8,-12.0578
112.5607,-316.8,-12.051
114.2645,-316.8,-12.0512
115.9693,-316.8,-12.0481
117.6739,-316.8,-12.0447
119.3795,-316.8,-12.0441
121.082,-316.8,-12.0409
122.7871,-316.8,-12.0392
124.4885,-316.8,-12.0299
126.1948,-316.8,-12.0399
127.8979,-316.8,-12.0245
129.6036,-316.8,-12.0271
131.3057,-316.8,-12.0168
133.0122,-316.8,-12.0136
134.7171,-316.8,-12.0178
136.4192,-316.8,-12.0212
138.1229,-316.8,-12.0233
139.8273,-316.8,-12.0045
141.5317,-316.8,-12.0166
143.2418,-316.8,-12.0067
144.9465,-316.8,-12.0039
146.6497,-316.8,-12.0049
148.3551,-316.8,-11.998
150.0625,-316.8,-12.0047
151.77,-316.8,-11.9933
153.4766,-316.8,-11.996
155.1774,-316.8,-12.0033
156.8836,-316.8,-11.9853
158.5901,-316.8,-11.9857
160.2929,-316.8,-11.9929
161.9965,-316.8,-11.9836
163.7024,-316.8,-11.982
165.4089,-316.8,-11.976
167.1158,-316.8,-11.9749
168.8211,-316.8,-11.9739
170.527,-316.8,-11.9719
172.2298,-316.8,-11.9644
173.933,-316.8,-11.9541
175.6403,-316.8,-11.9636
177.3452,-316.8,-11.965
179.0477,-316.8,-11.958
180.751,-316.8,-11.9656
182.4558,-316.8,-11.9543
184.1598,-316.8,-11.9541
185.8612,-316.8,-11.9561
187.5654,-316.8,-11.9523
189.2736,-316.8,-11.9458
190.9792,-316.8,-11.9507
192.6851,-316.8,-11.942
194.3894,-316.8,-11.9442
196.0933,-316.8,-11.9418
197.7975,-316.8,-11.9422
199.5056,-316.8,-11.9394
201.2127,-316.8,-11.9404
202.9183,-316.8,-11.9426
204.6253,-316.8,-11.9373
206.3293,-316.8,-11.9284
208.0344,-316.8,-11.9252
209.74,-316.8,-11.9297
211.4402,-316.8,-11.9301
213.1438,-316.8,-11.9218
214.8532,-316.8,-11.9246
216.5611,-316.8,-11.9276
218.2629,-316.8,-11.9159
219.9643,-316.8,-11.907
221.6695,-316.8,-11.9153
223.3745,-316.8,-11.9141
225.0775,-316.8,-11.9109
226.7826,-316.8,-11.9179
228.4866,-316.8,-11.9084
230.1923,-316.8,-11.9141
231.8945,-316.8,-11.9105
233.5981,-316.8,-11.9022
235.3004,-316.8,-11.9032
237.0059,-316.8,-11.8977
238.7132,-316.8,-11.9024
240.4141,-316.8,-11.8943
242.1176,-316.8,-11.902
243.8203,-316.8,-11.8902
245.523,-316.8,-11.8953
247.2269,-316.8,-11.8971
248.93,-316.8,-11.8914
250.6342,-316.8,-11.8914
252.3435,-316.8,-11.8902
254.0487,-316.8,-11.8811
255.7483,-316.8,-11.8933
257.4548,-316.8,-11.8811
259.1563,-316.8,-11.8874
260.8607,-316.8,-11.8878
262.566,-316.8,-11.8868
264.2707,-316.8,-11.8755
265.9731,-316.8,-11.8771
267.6768,-316.8,-11.8704
269.3812,-316.8,-11.8726
271.0867,-316.8,-11.8672
272.7965,-316.8,-11.8694
274.5008,-316.8,-11.8607
276.2024,-316.8,-11.8686
277.9053,-316.8,-11.8639
279.6097,-316.8,-11.8712
281.3133,-316.8,-11.853
283.016,-316.8,-11.8611
284.7184,-316.8,-11.8745
286.4271,-316.8,-11.8621
288.1334,-316.8,-11.866
289.8429,-316.8,-11.8621
291.5463,-316.8,-11.8617
293.2478,-316.8,-11.85
294.9549,-316.8,-11.8555
296.6599,-316.8,-11.8476
298.3645,-316.8,-11.8492
300.0671,-316.8,-11.853
301.769,-316.8,-11.8488
303.4732,-316.8,-11.849
305.1766,-316.8,-11.8445
306.8835,-316.8,-11.8478
308.5855,-316.8,-11.8427
310.2891,-316.8,-11.833
311.995,-316.8,-11.8381
313.6957,-316.8,-11.8431
315.4019,-316.8,-11.8294
317.1072,-316.8,-11.8387
318.8122,-316.8,-11.8389
320.5158,-316.8,-11.8354
322.219,-316.8,-11.8358
323.9215,-316.8,-11.8405
325.6208,-316.8,-11.8276
327.3282,-316.8,-11.8235
329.0311,-316.8,-11.83
330.7338,-316.8,-11.8241
332.4363,-316.8,-11.8356
334.1391,-316.8,-11.8296
335.8432,-316.8,-11.8255
337.5462,-316.8,-11.8213
339.2491,-316.8,-11.8284
340.9512,-316.8,-11.8205
342.653,-316.8,-11.813
344.3575,-316.8,-11.8189
346.0628,-316.8,-11.8223
347.7664,-316.8,-11.8164
349.4716,-316.8,-11.8187
351.1715,-316.8,-11.8098
352.8748,-316.8,-11.8126
354.5783,-316.8,-11.8096
356.2793,-316.8,-11.8158
357.9824,-316.8,-11.8041
359.6871,-316.8,-11.8063
361.3914,-316.8,-11.8102
363.0923,-316.8,-11.8124
364.7953,-316.8,-11.7889
366.4977,-316.8,-11.8049
368.1975,-316.8,-11.8102
369.8992,-316.8,-11.8053
371.5994,-316.8,-11.8017
373.3038,-316.8,-11.795
375.0071,-316.8,-11.7952
376.7119,-316.8,-11.8027
378.4132,-316.8,-11.792
380.1193,-316.8,-11.8102
381.8217,-316.8,-11.7893
383.522,-316.8,-11.7792
385.2237,-316.8,-11.7893
386.9318,-316.8,-11.7879
388.633,-316.8,-11.7904
390.3358,-316.8,-11.7904
392.0395,-316.8,-11.7849
393.7413,-316.8,-11.7849
395.4442,-316.8,-11.7748
397.1484,-316.8,-11.7806
398.8493,-316.8,-11.7756
400.5521,-316.8,-11.7829
402.2521,-316.8,-11.7713
403.9582,-316.8,-11.7655
405.6619,-316.8,-11.775
407.3693,-316.8,-11.7813
409.072,-316.8,-11.7663
410.7715,-316.8,-11.7718
412.4742,-316.8,-11.7641
414.1798,-316.8,-11.773
415.8848,-316.8,-11.7718
417.5876,-316.8,-11.7602
419.2936,-316.8,-11.7703
420.9978,-316.8,-11.7641
422.7021,-316.8,-11.7568
424.402,-316.8,-11.7598
426.1052,-316.8,-11.7527
427.8087,-316.8,-11.7548
429.509,-316.8,-11.7562
431.2134,-316.8,-11.7556
432.9175,-316.8,-11.7507
434.6222,-316.8,-11.7495
436.3257,-316.8,-11.755
438.0304,-316.8,-11.7461
439.7321,-316.8,-11.7586
441.4388,-316.8,-11.7481
443.1433,-316.8,-11.7453
444.844,-316.8,-11.7507
446.5482,-316.8,-11.7414
448.2511,-316.8,-11.7368
449.9524,-316.8,-11.7414
451.6548,-316.8,-11.7406
453.3571,-316.8,-11.7362
455.0613,-316.8,-11.7453
456.7638,-316.8,-11.7362
458.469,-316.8,-11.7313
460.1703,-316.8,-11.7248
461.8758,-316.8,-11.7382
463.5802,-316.8,-11.743
465.2871,-316.8,-11.7341
466.9928,-316.8,-11.7343
468.7176,-312.902,-11.7374
470.42,-301.555,2.77838
472.1259,-290.168,3.63423
473.8285,-278.82,3.24624
475.5318,-267.465,3.16395
477.2562,-265.567,3.34753
478.9585,-254.218,3.45085
480.6601,-242.868,3.50726
482.3672,-231.486,3.48724
484.0727,-220.134,3.47127
485.6758,-216.8,3.47147