File: Tinius-Olsen_Levitation_force/Preprocessed_measures/20231204_1434YBCOs1_sl9_1.txt.csv
Time(s),Displacement(mm),Force(N)
0.0,-276.6,2.9282
0.4456,-276.6,2.91789
0.8463,-276.6,2.92537
1.2478,-276.6,2.9286
1.648,-276.6,2.92092
2.0477,-276.6,2.92153
2.4482,-276.6,2.92193
2.8477,-276.6,2.92597
3.2493,-276.6,2.93062
3.6524,-276.6,2.92901
4.055,-276.6,2.93062
4.4562,-276.6,2.93244
4.8576,-276.6,2.93204
5.2579,-276.6,2.93204
5.6583,-276.6,2.92517
6.06,-276.6,2.93083
6.4615,-276.6,2.93042
6.8618,-276.6,2.92557
7.262,-276.6,2.93649
7.6619,-276.6,2.93891
8.0623,-276.6,2.9284
8.4634,-276.6,2.94073
8.8642,-276.6,2.92881
9.2643,-276.6,2.93244
9.6663,-276.6,2.92395
10.066,-276.6,2.93184
10.4657,-276.6,2.92537
10.8674,-276.6,2.93972
11.2679,-276.6,2.91101
11.6698,-276.6,2.91
12.0719,-276.6,2.9189
12.4939,-276.0,2.97288
12.8942,-276.0,2.95347
13.2953,-276.0,2.95307
13.6957,-276.0,2.95367
14.0968,-276.0,2.94559
14.4985,-276.0,2.95125
14.8997,-276.0,2.97106
15.3019,-276.0,2.9472
15.7021,-276.0,2.94862
16.1016,-276.0,2.95529
16.5038,-276.0,2.95185
16.9054,-276.0,2.95428
17.3067,-276.0,2.94559
17.7077,-276.0,2.95145
18.1104,-276.163,2.95408
18.5327,-278.562,2.86977
18.9334,-280.001,2.8449
19.3341,-280.001,2.85622
19.7374,-280.0,2.84753
20.138,-280.0,2.85299
20.5379,-280.0,2.83843
20.9375,-280.0,2.82731
21.3404,-280.0,2.82347
21.7405,-280.0,2.8635
22.1414,-280.0,2.85137
22.541,-280.0,2.86107
22.942,-280.0,2.83479
23.343,-280.0,2.84005
23.7432,-280.0,2.83378
24.143,-280.0,2.85339
24.5435,-280.0,2.85946
24.9446,-280.0,2.84995
25.3458,-280.0,2.82367
25.7456,-280.0,2.84186
26.1458,-280.0,2.82347
26.5476,-280.0,2.85966
26.9497,-280.0,2.84186
27.3503,-280.0,2.84914
27.7502,-280.0,2.82205
28.1523,-280.0,2.84409
28.553,-280.0,2.84005
28.9529,-280.0,2.83337
29.3535,-280.0,2.84207
29.753,-280.0,2.83681
30.1547,-280.0,2.84247
30.5559,-280.0,2.84793
30.9559,-280.0,2.84429
31.3559,-280.0,2.84712
31.7559,-280.0,2.86572
32.1559,-280.0,2.8633
32.5782,-281.907,2.82367
32.9798,-284.574,2.77231
33.3834,-287.274,2.73167
33.7838,-289.94,2.67587
34.1838,-292.607,2.62815
34.5855,-295.273,2.54162
34.9852,-297.938,2.44093
35.386,-300.605,2.28585
35.7859,-303.271,2.07133
36.1859,-305.937,1.83093
36.5881,-308.637,1.47933
36.99,-311.303,1.0141
37.3905,-314.003,0.365892
37.7917,-315.641,-0.123601
38.1935,-315.641,0.362455
38.5944,-315.64,0.45627
38.9939,-315.64,0.520363
39.3945,-315.64,0.55898
39.7959,-315.64,0.585669
40.1982,-315.64,0.618221
40.5992,-315.64,0.634396
41.0011,-315.64,0.645314
41.402,-315.64,0.672204
41.8033,-315.64,0.686357
42.2036,-315.64,0.698489
42.6036,-315.64,0.708194
43.0054,-315.64,0.713046
43.4053,-315.64,0.726188
43.806,-315.64,0.741756
44.2062,-315.64,0.744587
44.608,-315.64,0.750248
45.0089,-315.64,0.756112
45.4104,-315.64,0.761773
45.8105,-315.64,0.758336
46.2111,-315.64,0.783609
46.6113,-315.64,0.770467
47.0113,-315.64,0.790281
47.4119,-315.64,0.795336
47.8126,-315.64,0.809287
48.2119,-315.64,0.793314
48.6128,-315.64,0.788664
49.0144,-315.64,0.820205
49.4152,-315.64,0.81697
49.816,-315.64,0.811106
50.2159,-315.64,0.826675
50.6174,-315.64,0.822631
51.0197,-315.64,0.820811
51.4188,-315.64,0.84568
51.8188,-315.64,0.849724
52.2208,-315.64,0.842041
52.6247,-315.64,0.834156
53.0267,-315.64,0.850331
53.4261,-315.64,0.854576
53.8282,-315.64,0.857811
54.2284,-315.64,0.843456
54.6283,-315.64,0.841232
55.0286,-315.64,0.853565
55.4284,-315.64,0.862057
55.8279,-315.64,0.88268
56.2279,-315.64,0.852757
56.628,-315.64,0.884096
57.0306,-315.64,0.86327
57.4318,-315.64,0.866303
57.8315,-315.64,0.880052
58.2315,-315.64,0.883893
58.6323,-315.64,0.898046
59.0344,-315.64,0.881063
59.4362,-315.64,0.890566
59.837,-315.64,0.885511
60.2387,-315.64,0.890768
60.6398,-315.64,0.902697
61.0413,-315.64,0.890566
61.4414,-315.64,0.877019
61.8437,-315.64,0.898855
62.2439,-315.64,0.900473
62.6449,-315.64,0.897642
63.0463,-315.64,0.901484
63.4463,-315.64,0.904112
63.8477,-315.64,0.903505
64.2483,-315.64,0.911795
64.6498,-315.64,0.904921
65.0506,-315.64,0.904516
65.452,-315.64,0.913008
65.8521,-315.64,0.915232
66.2522,-315.64,0.915839
66.6523,-315.64,0.924128
67.0521,-315.64,0.921904
67.4539,-315.64,0.922107
67.8539,-315.64,0.924331
68.2545,-315.64,0.923724
68.6566,-315.64,0.933429
69.056,-315.64,0.922713
69.4563,-315.64,0.926959
69.8573,-315.64,0.932014
70.2588,-315.64,0.928779
70.6586,-315.64,0.932014
71.0594,-315.64,0.932822
71.4607,-315.64,0.933833
71.8603,-315.64,0.944347
72.2617,-315.64,0.941112
72.6622,-315.64,0.932822
73.0642,-315.64,0.950008
73.4661,-315.64,0.943134
73.8664,-315.64,0.935855
74.2663,-315.64,0.945965
74.6662,-315.64,0.942527
75.0664,-315.64,0.941112
75.4663,-315.64,0.945358
75.8672,-315.64,0.951019
76.2673,-315.64,0.943943
76.6683,-315.64,0.944549
77.0683,-315.64,0.950211
77.4698,-315.64,0.950817
77.8704,-315.64,0.95567
78.2714,-315.64,0.962544
78.6724,-315.64,0.954052
79.0713,-315.64,0.95567
79.4729,-315.64,0.953648
79.8742,-315.64,0.959915
80.2756,-315.64,0.962948
80.6759,-315.64,0.959107
81.0764,-315.64,0.969823
81.4779,-315.64,0.959915
81.8786,-315.64,0.961533
82.2785,-315.64,0.967801
82.6786,-315.64,0.966992
83.0799,-315.64,0.970834
83.4799,-315.64,0.973664
83.8804,-315.64,0.967801
84.2824,-315.64,0.970631
84.6849,-315.64,0.967801
85.0844,-315.64,0.976899
85.4863,-315.64,0.972451
85.8875,-315.64,0.977101
86.2876,-315.64,0.969216
86.6873,-315.64,0.974271
87.089,-315.64,0.962544
87.4888,-315.64,0.974675
87.8887,-315.64,0.976293
88.2889,-315.64,0.992872
88.6888,-315.64,0.997522
89.0889,-315.64,0.983369
89.4886,-315.64,0.973462
89.8895,-315.64,0.964161
90.2907,-315.64,0.998129
90.6921,-315.64,0.988424
91.0917,-315.64,0.987615
91.4932,-315.64,0.996107
91.8961,-315.64,0.987817
92.2979,-315.64,0.989232
92.6991,-315.64,0.994489
93.0989,-315.64,0.988828
93.4998,-315.64,0.985997
93.8993,-315.64,0.988424
94.2998,-315.64,0.984178
94.7012,-315.64,0.985593
95.1018,-315.64,0.994287
95.5042,-315.64,0.993681
95.9037,-315.64,0.988828
96.3053,-315.64,0.997118
96.7074,-315.64,1.0046
97.1075,-315.64,0.989839
97.5115,-315.64,0.988828
97.9151,-315.64,1.01147
98.3143,-315.64,1.0143
98.7146,-315.64,0.998533
99.1144,-315.64,1.00783
99.5156,-315.64,0.997926
99.9172,-315.64,0.994489
100.3166,-315.64,1.0046
100.7166,-315.64,1.01107
101.1166,-315.64,1.00035
101.5166,-315.64,1.00622
101.9166,-315.64,0.99914
102.3165,-315.64,1.01188
102.7175,-315.64,1.01147
103.1197,-315.64,1.00601
103.5229,-315.64,1.00379
103.926,-315.64,0.999544
104.3268,-315.64,1.00035
104.7285,-315.64,1.00783
105.1286,-315.64,1.00258
105.5296,-315.64,1.01612
105.9307,-315.64,1.00743
106.3327,-315.64,1.00622
106.7327,-315.64,1.01147
107.1335,-315.64,1.00601
107.5343,-315.64,1.01188
107.9346,-315.64,1.00682
108.3365,-315.64,1.01046