File: Tinius-Olsen_Levitation_force/Preprocessed_measures/20231204_1344cut1_highN_2.txt.csv
Time(s),Displacement(mm),Force(N)
0.0,-281.797,2.77899
1.2642,-281.797,2.79294
2.4637,-281.797,2.7804
3.6658,-281.797,2.77413
4.871,-281.797,2.76908
6.0744,-281.797,2.77858
7.2987,-281.0,2.80163
8.4996,-281.0,2.78647
9.7006,-281.0,2.78424
10.9039,-281.0,2.78505
12.105,-281.0,2.78222
13.3058,-281.0,2.79132
14.5082,-281.0,2.78687
15.7103,-281.0,2.79516
16.912,-281.0,2.79071
18.1169,-281.0,2.79152
19.3199,-281.0,2.79354
20.5228,-281.0,2.79496
21.7249,-281.0,2.78545
22.9292,-281.0,2.78727
24.1547,-280.445,2.84368
25.3568,-280.0,2.79961
26.5632,-280.0,2.79455
27.7685,-280.0,2.79374
28.9713,-280.0,2.79415
30.1729,-280.0,2.81154
31.3776,-280.0,2.81315
32.5795,-280.0,2.79031
33.7813,-280.0,2.81073
34.9833,-280.0,2.80648
36.1845,-280.0,2.7992
37.3891,-280.0,2.79779
38.5914,-280.0,2.80507
39.7925,-280.0,2.80082
40.9975,-280.0,2.80608
42.2021,-280.0,2.79374
43.4051,-280.0,2.80345
44.606,-280.0,2.79597
45.8095,-280.0,2.79637
47.0118,-280.0,2.77919
48.2138,-280.0,2.80345
49.4165,-280.0,2.80123
50.6195,-280.0,2.79941
51.8233,-280.0,2.79435
53.0264,-280.0,2.80042
54.2277,-280.0,2.79091
55.4283,-280.0,2.79536
56.6283,-280.0,2.80689
57.8315,-280.0,2.79779
59.0352,-280.0,2.80911
60.2382,-280.0,2.80648
61.4394,-280.0,2.80042
62.6439,-280.0,2.79941
63.8489,-280.0,2.79496
65.0518,-280.0,2.79981
66.2521,-280.0,2.81336
67.4531,-280.0,2.81356
68.6539,-280.0,2.80123
69.8565,-280.0,2.79071
71.0584,-280.0,2.78303
72.2587,-280.0,2.80871
73.4598,-280.0,2.7893
74.6617,-280.0,2.7988
75.8675,-280.0,2.81356
77.0711,-280.0,2.8263
78.2735,-280.0,2.79455
79.4762,-280.0,2.81255
80.6772,-280.0,2.81113
81.8776,-280.0,2.80224
83.0826,-280.0,2.79658
84.2868,-280.0,2.81639
85.4896,-280.0,2.8178
86.6912,-280.0,2.81538
87.894,-280.0,2.75533
89.0959,-280.0,2.82549
90.299,-280.0,2.81437
91.5015,-280.0,2.77797
92.7027,-280.0,2.77676
93.9029,-280.0,2.78909
95.105,-280.0,2.81275
96.3063,-280.0,2.77474
97.5082,-280.0,2.77939
98.71,-280.0,2.7802
99.9122,-280.0,2.79516
101.115,-280.0,2.78626
102.316,-280.0,2.81336
103.5179,-280.0,2.79071
104.7201,-280.0,2.85117
105.9237,-280.0,2.83984
107.1246,-280.0,2.79941
108.3281,-280.0,2.80871
109.5301,-280.0,2.79516
110.7302,-280.0,2.77252
111.9311,-280.0,2.77777
113.1361,-280.0,2.82751
114.3385,-280.0,2.82731
115.5402,-280.0,2.81983
116.764,-285.245,2.73228
117.9681,-293.278,2.54607
119.1744,-301.315,2.07356
120.3802,-309.347,0.214455
121.5825,-316.802,-6.37277
122.7827,-316.8,-5.80908
123.985,-316.8,-5.39439
125.1866,-316.8,-5.1819
126.39,-316.8,-5.01691
127.5902,-316.8,-4.91643
128.7915,-316.8,-4.84606
129.9977,-316.8,-4.74881
131.2004,-316.8,-4.69301
132.4056,-316.8,-4.65217
133.6082,-316.8,-4.60425
134.8134,-316.8,-4.56563
136.0151,-316.8,-4.51023
137.2174,-316.8,-4.51165
138.4184,-316.8,-4.4698
139.6226,-316.8,-4.43118
140.8227,-316.8,-4.41238
142.0247,-316.8,-4.39337
143.2313,-316.8,-4.35435
144.4343,-316.8,-4.3406
145.6359,-316.8,-4.32301
146.8392,-316.8,-4.30097
148.0403,-316.8,-4.28196
149.2459,-316.8,-4.26114
150.4502,-316.8,-4.25325
151.6514,-316.8,-4.24517
152.8514,-316.8,-4.21828
154.0528,-316.8,-4.20554
155.256,-316.8,-4.19907
156.4569,-316.8,-4.18613
157.6613,-316.8,-4.16652
158.8638,-316.8,-4.1554
160.069,-316.8,-4.14792
161.2725,-316.8,-4.1374
162.4746,-316.8,-4.12305
163.6762,-316.8,-4.10182
164.8783,-316.8,-4.09272
166.0809,-316.8,-4.09494
167.2858,-316.8,-4.09009
168.487,-316.8,-4.06765
169.6881,-316.8,-4.06765
170.8896,-316.8,-4.05248
172.0909,-316.8,-4.04136
173.2909,-316.8,-4.03671
174.4947,-316.8,-4.02195
175.6983,-316.8,-4.01609
176.8995,-316.8,-4.01265
178.1022,-316.8,-4.00133
179.3041,-316.8,-3.98677
180.5078,-316.8,-3.9892
181.7108,-316.8,-3.97687
182.9127,-316.8,-3.97949
184.1131,-316.8,-3.96736
185.3159,-316.8,-3.96029
186.5218,-316.8,-3.95624
187.7257,-316.8,-3.94411
188.9292,-316.8,-3.94573
190.1304,-316.8,-3.9334
191.3328,-316.8,-3.93481
192.5348,-316.8,-3.9243
193.7355,-316.8,-3.91803
194.9368,-316.8,-3.91318
196.1391,-316.8,-3.9063
197.341,-316.8,-3.90044
198.5458,-316.8,-3.89073
199.7487,-316.8,-3.89175
200.9488,-316.8,-3.88891
202.1511,-316.8,-3.88244
203.3535,-316.8,-3.88265
204.5544,-316.8,-3.87658
205.759,-316.8,-3.86789
206.9636,-316.8,-3.86243
208.1672,-316.8,-3.85434
209.371,-316.8,-3.85838
210.5717,-316.8,-3.85434
211.7735,-316.8,-3.83857
212.9769,-316.8,-3.84039
214.1785,-316.8,-3.83352
215.3799,-316.8,-3.82988
216.5813,-316.8,-3.82442
217.7844,-316.8,-3.81977
218.9852,-316.8,-3.8135
220.1901,-316.8,-3.81188
221.3934,-316.8,-3.81168
222.5962,-316.8,-3.79813
223.7994,-316.8,-3.79894
225.0013,-316.8,-3.79106
226.2083,-316.8,-3.79207
227.4105,-316.8,-3.78499
228.6115,-316.8,-3.786
229.8134,-316.8,-3.78479
231.0133,-316.8,-3.77246
232.2162,-316.8,-3.77751
233.4184,-316.8,-3.76659
234.6225,-316.8,-3.76902
235.8252,-316.8,-3.76619
237.0274,-316.8,-3.76275
238.2286,-316.8,-3.76012
239.4315,-316.8,-3.75588
240.6353,-316.8,-3.75406
241.8364,-316.8,-3.7581
243.0392,-316.8,-3.74334
244.2387,-316.8,-3.74193
245.4416,-316.8,-3.73566
246.6425,-316.8,-3.73323
247.8463,-316.8,-3.73141
249.0492,-316.8,-3.73121
250.2501,-316.8,-3.71908
251.4512,-316.8,-3.72636
252.6545,-316.8,-3.71847
253.8565,-316.8,-3.70776
255.0615,-316.8,-3.71322
256.2632,-316.8,-3.70675
257.4687,-316.8,-3.70978
258.6691,-316.8,-3.70654
259.8717,-316.8,-3.70654
261.0767,-316.8,-3.69562
262.2785,-316.8,-3.69381
263.4817,-316.8,-3.69765
264.6841,-316.8,-3.68632
265.8846,-316.8,-3.68208
267.0885,-316.8,-3.6839
268.2917,-316.8,-3.68127
269.4952,-316.8,-3.68046
270.6967,-316.8,-3.68349
271.9001,-316.8,-3.67096
273.1017,-316.8,-3.67136
274.3043,-316.8,-3.66712
275.5043,-316.8,-3.6744
276.7038,-316.8,-3.66772
277.9071,-316.8,-3.66408
279.1101,-316.8,-3.66348
280.3119,-316.8,-3.6566
281.5169,-316.8,-3.65397
282.7214,-316.8,-3.65236
283.9221,-316.8,-3.65296
285.1239,-316.8,-3.65054
286.3274,-316.8,-3.64508
287.5326,-316.8,-3.64407
288.7377,-316.8,-3.64427
289.9374,-316.8,-3.64407
291.1415,-316.8,-3.63901
292.3438,-316.8,-3.63638
293.5464,-316.8,-3.63436
294.752,-316.8,-3.62809
295.9558,-316.8,-3.63376
297.1566,-316.8,-3.62648
298.3575,-316.8,-3.62648
299.561,-316.8,-3.62264
300.7669,-316.8,-3.61697
301.973,-316.8,-3.62466
303.1745,-316.8,-3.61313
304.3775,-316.8,-3.60909
305.5797,-316.8,-3.61152
306.7814,-316.8,-3.6099
307.9822,-316.8,-3.60788
309.1871,-316.8,-3.60666
310.3922,-316.8,-3.60868
311.6002,-316.8,-3.6004
312.8016,-316.8,-3.59999
314.006,-316.8,-3.59453
315.2108,-316.8,-3.58907
316.4117,-316.8,-3.59089
317.6141,-316.8,-3.59494
318.8161,-316.8,-3.58725
320.0196,-316.8,-3.58078
321.2235,-316.8,-3.58321
322.4273,-316.8,-3.58382
323.6301,-316.8,-3.57997
324.8334,-316.8,-3.58119
326.0346,-316.8,-3.57937
327.2377,-316.8,-3.57937
328.4388,-316.8,-3.58139
329.6401,-316.8,-3.57977
330.8462,-316.8,-3.56825
332.0503,-316.8,-3.56966
333.2546,-316.8,-3.56663
334.4594,-316.8,-3.56885
335.6615,-316.8,-3.56542
336.8647,-316.8,-3.5638
338.0683,-316.8,-3.57007
339.2702,-316.8,-3.56481
340.4724,-316.8,-3.56016
341.6753,-316.8,-3.56077
342.877,-316.8,-3.55652
344.0778,-316.8,-3.5543
345.2788,-316.8,-3.55025
346.3804,-316.8,-3.54965