File: Tinius-Olsen_Levitation_force/Preprocessed_measures/20231204_1644GDBCOs2_sl6_2.txt.csv
Time(s),Displacement(mm),Force(N)
0.0,-266.962,2.97591
1.0251,-273.366,3.01534
2.0281,-280.067,3.06083
3.0294,-286.735,3.13807
4.0319,-293.439,3.22521
5.0358,-300.139,3.17143
6.0421,-306.837,1.98379
7.0456,-313.505,-5.025
8.0485,-316.801,-13.5067
9.0534,-316.8,-13.311
10.0595,-316.8,-13.219
11.0596,-316.8,-13.1592
12.0617,-316.8,-13.1096
13.0656,-316.8,-13.072
14.0713,-316.8,-13.049
15.0768,-316.8,-13.0237
16.0774,-316.8,-12.9996
17.0789,-316.8,-12.9903
18.0805,-316.8,-12.9608
19.0828,-316.8,-12.9412
20.0851,-316.8,-12.9274
21.0899,-316.8,-12.9109
22.0938,-316.8,-12.9052
23.0968,-316.8,-12.886
24.0983,-316.8,-12.8739
25.099,-316.8,-12.87
26.0998,-316.8,-12.8539
27.101,-316.8,-12.8488
28.1018,-316.8,-12.8336
29.1039,-316.8,-12.8278
30.106,-316.8,-12.8183
31.1092,-316.8,-12.8073
32.1108,-316.8,-12.7999
33.113,-316.8,-12.7908
34.1203,-316.8,-12.7797
35.1207,-316.8,-12.776
36.122,-316.8,-12.7681
37.1221,-316.8,-12.7576
38.1224,-316.8,-12.7562
39.1248,-316.8,-12.7362
40.1247,-316.8,-12.7366
41.1279,-316.8,-12.7289
42.1299,-316.8,-12.722
43.1313,-316.8,-12.718
44.1329,-316.8,-12.7135
45.1358,-316.8,-12.7042
46.1379,-316.8,-12.7034
47.1395,-316.8,-12.6957
48.1408,-316.8,-12.6891
49.1419,-316.8,-12.685
50.1451,-316.8,-12.6767
51.1458,-316.8,-12.6735
52.1483,-316.8,-12.6717
53.1479,-316.8,-12.6579
54.1518,-316.8,-12.6515
55.1538,-316.8,-12.6533
56.1552,-316.8,-12.6511
57.1566,-316.8,-12.6383
58.1597,-316.8,-12.6351
59.1641,-316.8,-12.6405
60.1654,-316.8,-12.6264
61.169,-316.8,-12.6228
62.1713,-316.8,-12.6076
63.1734,-316.8,-12.6074
64.1746,-316.8,-12.6135
65.1767,-316.8,-12.6054
66.1797,-316.8,-12.6023
67.1804,-316.8,-12.6025
68.1822,-316.8,-12.5914
69.1827,-316.8,-12.592
70.184,-316.8,-12.5853
71.1866,-316.8,-12.5799
72.1891,-316.8,-12.5779
73.1919,-316.8,-12.5682
74.1957,-316.8,-12.5734
75.197,-316.8,-12.5623
76.1988,-316.8,-12.5601
77.2016,-316.8,-12.5589
78.2038,-316.8,-12.5572
79.2055,-316.8,-12.5516
80.2064,-316.8,-12.5498
81.2084,-316.8,-12.5435
82.2128,-316.8,-12.5409
83.2171,-316.8,-12.5368
84.2207,-316.8,-12.5324
85.2236,-316.8,-12.5257
86.2267,-316.8,-12.5249
87.2264,-316.8,-12.5217
88.228,-316.8,-12.5198
89.229,-316.8,-12.5124
90.23,-316.8,-12.518
91.2329,-316.8,-12.5087
92.2333,-316.8,-12.5099
93.2362,-316.8,-12.502
94.2363,-316.8,-12.4992
95.2403,-316.8,-12.4966
96.2429,-316.8,-12.498
97.2429,-316.8,-12.4903
98.2434,-316.8,-12.4881
99.247,-316.8,-12.4859
100.2485,-316.8,-12.4739
101.2527,-316.8,-12.4794
102.2533,-316.8,-12.4808
103.2544,-316.8,-12.4657
104.2572,-316.8,-12.4677
105.2604,-316.8,-12.462
106.2626,-316.8,-12.4644
107.2634,-316.8,-12.4608
108.2647,-316.8,-12.4612
109.2669,-316.8,-12.4533
110.2683,-316.8,-12.4606
111.2706,-316.8,-12.4466
112.2732,-316.8,-12.444
113.2743,-316.8,-12.4456
114.2757,-316.8,-12.4363
115.2764,-316.8,-12.4218
116.2798,-316.8,-12.4361
117.2807,-316.8,-12.4406
118.2827,-316.8,-12.4285
119.2843,-316.8,-12.4315
120.2838,-316.8,-12.4147
121.2877,-316.8,-12.4272
122.2907,-316.8,-12.4179
123.2925,-316.8,-12.4149
124.2944,-316.8,-12.4139
125.298,-316.8,-12.4129
126.2976,-316.8,-12.4096
127.3027,-316.8,-12.4018
128.3052,-316.8,-12.4094
129.3076,-316.8,-12.4052
130.3114,-316.8,-12.3979
131.3108,-316.8,-12.3963
132.3132,-316.8,-12.4016
133.3152,-316.8,-12.3933
134.3178,-316.8,-12.3961
135.3208,-316.8,-12.387
136.3231,-316.8,-12.3783
137.3273,-316.8,-12.3779
138.3292,-316.8,-12.3757
139.3309,-316.8,-12.3809
140.3328,-316.8,-12.3749
141.3357,-316.8,-12.3757
142.3393,-316.8,-12.3779
143.3394,-316.8,-12.3688
144.3422,-316.8,-12.3694
145.3439,-316.8,-12.3636
146.3495,-316.8,-12.3601
147.3501,-316.8,-12.3567
148.351,-316.8,-12.3502
149.358,-316.8,-12.3565
150.3599,-316.8,-12.353
151.361,-316.8,-12.3553
152.3646,-316.8,-12.3498
153.366,-316.8,-12.3492
154.3693,-316.8,-12.3466
155.371,-316.8,-12.3407
156.371,-316.8,-12.3431
157.3734,-316.8,-12.3472
158.3744,-316.8,-12.3391
159.3753,-316.8,-12.3387
160.3789,-316.8,-12.3356
161.3812,-316.8,-12.3261
162.3852,-316.8,-12.3229
163.386,-316.8,-12.3243
164.3867,-316.8,-12.3217
165.3876,-316.8,-12.3255
166.3891,-316.8,-12.316
167.3921,-316.8,-12.3239
168.3939,-316.8,-12.3168
169.3956,-316.8,-12.3183
170.3963,-316.8,-12.3128
171.3981,-316.8,-12.3162
172.3991,-316.8,-12.317
173.402,-316.8,-12.3144
174.4048,-316.8,-12.3047
175.4075,-316.8,-12.3029
176.4093,-316.8,-12.3061
177.4103,-316.8,-12.2999
178.4115,-316.8,-12.3025
179.415,-316.8,-12.2995
180.4169,-316.8,-12.2972
181.4191,-316.8,-12.2936
182.4199,-316.8,-12.2922
183.4211,-316.8,-12.2875
184.4235,-316.8,-12.2875
185.4241,-316.8,-12.2803
186.4252,-316.8,-12.2833
187.427,-316.8,-12.2805
188.4279,-316.8,-12.2776
189.4298,-316.8,-12.2811
190.4299,-316.8,-12.2803
191.433,-316.8,-12.2823
192.4374,-316.8,-12.2746
193.4406,-316.8,-12.2774
194.441,-316.8,-12.2645
195.4458,-316.8,-12.2724
196.4472,-316.8,-12.2627
197.4494,-316.8,-12.2705
198.4512,-316.8,-12.2693
199.4531,-316.8,-12.2592
200.4573,-316.8,-12.2621
201.4599,-316.8,-12.2501
202.4637,-316.8,-12.2497
203.4635,-316.8,-12.2445
204.4669,-316.8,-12.2633
205.4688,-316.8,-12.2554
206.47,-316.8,-12.2562
207.4729,-316.8,-12.2477
208.4794,-316.8,-12.2497
209.4794,-316.8,-12.2521
210.4831,-316.8,-12.2493
211.4838,-316.8,-12.2396
212.4852,-316.8,-12.2422
213.4881,-316.8,-12.2398
214.4903,-316.8,-12.2339
215.4963,-316.8,-12.2426
216.4998,-316.8,-12.2257
217.4993,-316.8,-12.2368
218.5013,-316.8,-12.2289
219.504,-316.8,-12.2319
220.5053,-316.8,-12.2299
221.5093,-316.8,-12.2285
222.5123,-316.8,-12.2253
223.5134,-316.8,-12.2204
224.514,-316.8,-12.2204
225.5146,-316.8,-12.2234
226.5165,-316.8,-12.2149
227.5182,-316.8,-12.2174
228.5195,-316.8,-12.2158
229.5217,-316.8,-12.2186
230.5235,-316.8,-12.2145
231.5239,-316.8,-12.2153
232.5257,-316.8,-12.2081
233.5278,-316.8,-12.2151
234.5331,-316.8,-12.2079
235.535,-316.8,-12.2036
236.5375,-316.8,-12.2024
237.5391,-316.8,-12.2048
238.5418,-316.8,-12.2024
239.5417,-316.8,-12.1895
240.5435,-316.8,-12.1899
241.545,-316.8,-12.1913
242.5463,-316.8,-12.1913
243.5511,-316.8,-12.1915
244.5517,-316.8,-12.1909
245.5518,-316.8,-12.1889
246.5542,-316.8,-12.183
247.5569,-316.8,-12.1832
248.5605,-316.8,-12.1794
249.5629,-316.8,-12.18
250.5642,-316.8,-12.1879
251.5642,-316.8,-12.1887
252.5656,-316.8,-12.1769
253.5697,-316.8,-12.1666
254.5707,-316.8,-12.1864
255.572,-316.8,-12.1713
256.5722,-316.8,-12.1757
257.572,-316.8,-12.1699
258.5749,-316.8,-12.1707
259.5757,-316.8,-12.1713
260.5814,-316.8,-12.1624
261.5837,-316.8,-12.1672
262.5878,-316.8,-12.1616
263.5898,-316.8,-12.1658
264.5903,-316.8,-12.1646
265.592,-316.8,-12.1541
266.5938,-316.8,-12.1543
267.5938,-316.8,-12.1599
268.5983,-316.8,-12.1543
269.6021,-316.8,-12.1504
270.6043,-316.8,-12.1531
271.6272,-314.885,-12.1496
272.6292,-308.22,0.422909
273.6292,-301.555,3.5386
274.6301,-294.887,3.60471
275.6329,-288.185,3.3629
276.6362,-281.484,3.19933
277.6391,-274.819,3.09237
278.6422,-268.119,3.0489
279.6448,-266.8,3.09581
280.648,-266.8,3.09601
281.4494,-266.8,3.09096