File: Tinius-Olsen_Levitation_force/Preprocessed_measures/20231204_1527YBCOs1_sl9_2.txt.csv
Time(s),Displacement(mm),Force(N)
0.0,-266.268,2.91566
1.043,-266.268,2.9195
2.0467,-266.268,2.92072
3.048,-266.268,2.91667
4.0487,-266.268,2.91647
5.0529,-266.268,2.92638
6.0739,-266.0,2.92759
7.074,-266.0,2.9284
8.0762,-266.0,2.9284
9.0782,-266.0,2.92294
10.0796,-266.0,2.93042
11.0815,-266.152,2.90212
12.1064,-270.0,2.88817
13.1089,-270.0,2.90009
14.1088,-270.0,2.89302
15.11,-270.0,2.89403
16.1108,-270.0,2.89787
17.1122,-270.0,2.891
18.114,-270.0,2.89039
19.1155,-270.0,2.88837
20.1216,-270.0,2.89241
21.1241,-270.0,2.88675
22.127,-270.0,2.89362
23.1288,-270.0,2.88776
24.1316,-270.0,2.8825
25.1342,-270.0,2.88897
26.1568,-270.58,2.8451
27.1595,-277.247,2.85339
28.1615,-283.946,2.79314
29.1617,-290.611,2.67061
30.1675,-297.313,2.44598
31.1708,-303.978,1.95588
32.174,-310.679,0.916445
33.1772,-315.641,-1.59531
34.1806,-315.64,-1.09773
35.1839,-315.64,-0.975613
36.1881,-315.64,-0.899794
37.1912,-315.64,-0.861985
38.1924,-315.64,-0.818919
39.1965,-315.64,-0.786367
40.1996,-315.64,-0.760487
41.2037,-315.64,-0.734203
42.2046,-315.64,-0.710547
43.209,-315.64,-0.69235
44.2116,-315.64,-0.677187
45.2119,-315.64,-0.662225
46.214,-315.64,-0.643826
47.2161,-315.64,-0.633514
48.2186,-315.64,-0.619361
49.2232,-315.64,-0.608039
50.2244,-315.64,-0.599749
51.2243,-315.64,-0.584181
52.2261,-315.64,-0.57852
53.2297,-315.64,-0.564973
54.232,-315.64,-0.556886
55.2337,-315.64,-0.544957
56.236,-315.64,-0.54152
57.2398,-315.64,-0.532826
58.24,-315.64,-0.530399
59.2413,-315.64,-0.516853
60.2429,-315.64,-0.514629
61.2473,-315.64,-0.508159
62.2491,-315.64,-0.501487
63.2538,-315.64,-0.49441
64.2545,-315.64,-0.493399
65.2545,-315.64,-0.484503
66.2539,-315.64,-0.481875
67.2589,-315.64,-0.473989
68.2623,-315.64,-0.468126
69.2639,-315.64,-0.462667
70.2642,-315.64,-0.459028
71.2657,-315.64,-0.453164
72.2667,-315.64,-0.450131
73.2689,-315.64,-0.440831
74.2694,-315.64,-0.437191
75.2722,-315.64,-0.442246
76.2761,-315.64,-0.433754
77.2789,-315.64,-0.430519
78.281,-315.64,-0.426476
79.2827,-315.64,-0.421623
80.2847,-315.64,-0.417984
81.2894,-315.64,-0.409694
82.2934,-315.64,-0.402011
83.2954,-315.64,-0.404639
84.2975,-315.64,-0.406055
85.2985,-315.64,-0.397765
86.2985,-315.64,-0.394732
87.3026,-315.64,-0.393721
88.3078,-315.64,-0.395339
89.3103,-315.64,-0.386645
90.3103,-315.64,-0.385836
91.3115,-315.64,-0.374312
92.3124,-315.64,-0.372492
93.3142,-315.64,-0.369055
94.3187,-315.64,-0.372694
95.3221,-315.64,-0.368044
96.3246,-315.64,-0.362585
97.3283,-315.64,-0.362585
98.33,-315.64,-0.366022
99.33,-315.64,-0.359956
100.3305,-315.64,-0.359552
101.3345,-315.64,-0.35753
102.3372,-315.64,-0.353689
103.3416,-315.64,-0.349443
104.3466,-315.64,-0.348027
105.3477,-315.64,-0.349847
106.3523,-315.64,-0.346208
107.3525,-315.64,-0.340142
108.3548,-315.64,-0.334279
109.3564,-315.64,-0.331044
110.3593,-315.64,-0.334683
111.3625,-315.64,-0.333066
112.3645,-315.64,-0.330235
113.3679,-315.64,-0.323158
114.3711,-315.64,-0.326191
115.3738,-315.64,-0.318306
116.3767,-315.64,-0.320328
117.3777,-315.64,-0.320126
118.3819,-315.64,-0.315475
119.3877,-315.64,-0.31871
120.3914,-315.64,-0.316082
121.3956,-315.64,-0.31224
122.3959,-315.64,-0.306984
123.3971,-315.64,-0.305164
124.3974,-315.64,-0.305973
125.4017,-315.64,-0.300311
126.408,-315.64,-0.299907
127.4085,-315.64,-0.29829
128.4101,-315.64,-0.295257
129.411,-315.64,-0.300716
130.4128,-315.64,-0.297076
131.4146,-315.64,-0.289798
132.4182,-315.64,-0.285956
133.4193,-315.64,-0.285956
134.4206,-315.64,-0.284136
135.422,-315.64,-0.284541
136.4234,-315.64,-0.286158
137.4249,-315.64,-0.278677
138.4281,-315.64,-0.283934
139.4293,-315.64,-0.27059
140.4338,-315.64,-0.278071
141.435,-315.64,-0.279082
142.4347,-315.64,-0.275038
143.4373,-315.64,-0.276656
144.4383,-315.64,-0.276858
145.4399,-315.64,-0.272612
146.4438,-315.64,-0.266748
147.4457,-315.64,-0.267355
148.4513,-315.64,-0.258661
149.453,-315.64,-0.261896
150.4554,-315.64,-0.260481
151.4553,-315.64,-0.265131
152.4576,-315.64,-0.25765
153.4602,-315.64,-0.253
154.461,-315.64,-0.259268
155.463,-315.64,-0.254213
156.4671,-315.64,-0.255022
157.4693,-315.64,-0.254819
158.472,-315.64,-0.256841
159.4744,-315.64,-0.254819
160.475,-315.64,-0.251584
161.4799,-315.64,-0.253404
162.483,-315.64,-0.251787
163.4831,-315.64,-0.244912
164.4857,-315.64,-0.244508
165.489,-315.64,-0.245115
166.4907,-315.64,-0.242688
167.4948,-315.64,-0.239251
168.4971,-315.64,-0.234601
169.499,-315.64,-0.236016
170.5008,-315.64,-0.237229
171.5055,-315.64,-0.232175
172.5076,-315.64,-0.231972
173.5084,-315.64,-0.227322
174.5093,-315.64,-0.228131
175.5115,-315.64,-0.226716
176.5128,-315.64,-0.222874
177.5155,-315.64,-0.220246
178.5165,-315.64,-0.228131
179.5183,-315.64,-0.21883
180.5212,-315.64,-0.216404
181.5233,-315.64,-0.219639
182.527,-315.64,-0.220043
183.5274,-315.64,-0.213169
184.5277,-315.64,-0.210945
185.5295,-315.64,-0.207306
186.5322,-315.64,-0.215595
187.5354,-315.64,-0.214989
188.536,-315.64,-0.200027
189.5386,-315.64,-0.206093
190.5404,-315.64,-0.20589
191.5426,-315.64,-0.202251
192.5442,-315.64,-0.202453
193.5482,-315.64,-0.206497
194.551,-315.64,-0.199016
195.5531,-315.64,-0.20124
196.5556,-315.64,-0.200431
197.5554,-315.64,-0.199016
198.5556,-315.64,-0.216
199.5604,-315.64,-0.208721
200.5606,-315.352,-0.199218
201.5643,-313.341,3.72279
202.5644,-311.341,4.37888
203.5653,-309.342,4.42054
204.5681,-307.343,4.2879
205.5709,-305.332,4.09441
206.5744,-303.321,3.90071
207.5757,-301.322,3.72117
208.5775,-299.322,3.56832
209.5782,-297.312,3.44034
210.583,-295.312,3.33965
211.5835,-293.311,3.2616
212.5919,-291.579,3.19185
213.5927,-291.58,3.16334
214.5947,-291.58,3.15364
215.5986,-291.58,3.15485
216.6004,-291.58,3.15263
217.6036,-291.58,3.15202
218.6086,-291.58,3.14757
219.6113,-291.58,3.15202
220.6153,-289.855,3.14292
221.6192,-287.845,3.11279
222.6205,-285.845,3.08166
223.6236,-283.835,3.0578
224.6287,-281.825,3.02889
225.632,-279.814,3.01575
226.6317,-277.815,3.00058
227.6328,-275.815,2.98805
228.6355,-273.805,2.98056
229.6396,-271.804,2.97875
230.644,-269.795,2.98178
231.6479,-267.785,2.99714
232.6499,-265.785,3.01312
233.6515,-263.775,3.04789
234.6517,-261.776,3.1041
235.6536,-259.776,3.16597
236.6561,-257.766,3.2333
237.6574,-255.766,3.29355
238.6565,-253.766,3.3445
239.6597,-251.767,3.41243
240.664,-249.757,3.46521
241.6638,-247.756,3.47996
242.6638,-245.757,3.48583
243.6668,-243.747,3.49432
244.6697,-241.736,3.50018
245.6704,-239.747,3.50564
246.6718,-237.737,3.51373
247.6795,-235.717,3.51333
248.6839,-233.717,3.51353
249.6866,-231.707,3.51151
250.6912,-229.697,3.51049
251.6939,-227.697,3.51312
252.6963,-225.688,3.5107
253.6975,-223.688,3.50544
254.6993,-221.678,3.50059
255.7006,-219.679,3.50342
256.7015,-217.678,3.50221
257.7049,-218.307,3.5014
258.7069,-220.307,3.5018
259.7083,-222.307,3.50322
260.7091,-224.317,3.50544
261.7123,-226.49,3.49958
262.7131,-236.535,3.5018
263.7173,-246.536,3.50281
264.72,-256.585,3.45651
265.7223,-266.634,3.18194
266.7242,-267.335,2.99148
267.7262,-267.335,2.99027
268.7341,-267.335,2.98845
269.7364,-267.335,2.9935
270.7383,-267.335,2.99452
271.7423,-267.335,3.002
272.7441,-267.335,2.98987
273.7462,-267.335,2.98683
274.7484,-267.335,2.99997
275.0487,-267.335,2.99209