File: Tinius-Olsen_Levitation_force/Preprocessed_measures/20231204_1541YBCOs1_sl9_4.txt.csv
Time(s),Displacement(mm),Force(N)
0.0,-315.495,0.994894
0.9191,-309.748,4.54832
1.8215,-303.729,3.91062
2.7224,-297.748,3.45186
3.6252,-291.698,3.20722
4.5283,-285.714,3.08186
5.4349,-279.665,3.02505
6.3415,-273.612,3.02242
7.2418,-267.594,3.13706
8.1438,-265.639,3.18437
9.0442,-265.64,3.18194
9.9443,-265.64,3.18012
10.8464,-265.64,3.18316
11.7498,-265.64,3.18558
12.6514,-265.64,3.17709
13.556,-265.64,3.17547
14.4555,-265.64,3.1779
15.3576,-265.64,3.18214
16.258,-265.768,3.15182
17.1816,-271.552,3.01494
18.0829,-277.57,2.97915
18.9846,-283.585,2.97612
19.8857,-289.569,2.96661
20.7881,-295.585,2.88614
21.6921,-301.603,2.55557
22.5914,-307.623,1.88007
23.4918,-312.955,0.384696
24.392,-315.64,-0.988149
25.2935,-315.64,-0.82822
26.1954,-315.64,-0.761094
27.1012,-315.64,-0.719848
28.0063,-315.64,-0.681837
28.9068,-315.64,-0.663236
29.8088,-315.64,-0.640591
30.7137,-315.64,-0.624416
31.6155,-315.64,-0.611476
32.5155,-315.64,-0.598536
33.4196,-315.64,-0.582159
34.3205,-315.64,-0.56558
35.2231,-315.64,-0.562951
36.1263,-315.64,-0.55082
37.0319,-315.64,-0.539902
37.9341,-315.64,-0.535656
38.8375,-315.64,-0.526962
39.7398,-315.64,-0.518673
40.6414,-315.64,-0.514224
41.5423,-315.64,-0.508765
42.4424,-315.64,-0.505733
43.345,-315.64,-0.499263
44.2466,-315.64,-0.49623
45.1476,-315.64,-0.490366
46.0503,-315.64,-0.481875
46.9497,-315.64,-0.473787
47.8522,-315.64,-0.470957
48.7547,-315.64,-0.469339
49.6579,-315.64,-0.466508
50.5614,-315.64,-0.462465
51.4652,-315.64,-0.456804
52.3704,-315.64,-0.458421
53.2727,-315.64,-0.449323
54.1754,-315.64,-0.453569
55.0757,-315.64,-0.444672
55.9756,-315.64,-0.44164
56.8777,-315.64,-0.424252
57.7797,-315.64,-0.43153
58.6821,-315.64,-0.43153
59.5874,-315.64,-0.427284
60.4903,-315.64,-0.424858
61.3904,-315.64,-0.422432
62.2927,-315.64,-0.420006
63.1946,-315.64,-0.418186
64.0965,-315.64,-0.414951
64.9998,-315.64,-0.409694
65.9019,-315.64,-0.411312
66.8055,-315.64,-0.410099
67.7062,-315.64,-0.400191
68.6078,-315.64,-0.398776
69.5095,-315.64,-0.395945
70.4106,-315.64,-0.398574
71.3119,-315.64,-0.397967
72.2138,-315.64,-0.39453
73.1175,-315.64,-0.395137
74.0217,-315.64,-0.390284
74.9247,-315.64,-0.392508
75.8258,-315.64,-0.391497
76.7269,-315.64,-0.386443
77.6279,-315.64,-0.381388
78.5302,-315.64,-0.381792
79.4322,-315.64,-0.374109
80.3356,-315.64,-0.378355
81.2406,-315.64,-0.369055
82.1422,-315.64,-0.368448
83.0444,-315.64,-0.37229
83.9467,-315.64,-0.361574
84.8478,-315.64,-0.367639
85.7483,-315.64,-0.362383
86.6506,-315.64,-0.360765
87.5513,-315.64,-0.360361
88.454,-315.64,-0.357732
89.3568,-315.64,-0.354902
90.2581,-315.64,-0.352071
91.1599,-315.64,-0.350858
92.0603,-315.64,-0.351262
92.9637,-315.64,-0.34277
93.8668,-315.64,-0.347623
94.7717,-315.64,-0.349645
95.6741,-315.64,-0.347825
96.5799,-315.64,-0.339536
97.4804,-315.64,-0.345197
98.3806,-315.64,-0.342366
99.282,-315.64,-0.341355
100.1849,-315.64,-0.335087
101.0881,-315.64,-0.335896
101.9897,-315.64,-0.33347
102.8936,-315.64,-0.335087
103.7953,-315.64,-0.332257
104.6967,-315.64,-0.334683
105.5986,-315.64,-0.328415
106.5006,-315.64,-0.332661
107.4042,-315.64,-0.328213
108.3056,-315.64,-0.330437
109.209,-315.64,-0.325585
110.1092,-315.64,-0.327607
111.0112,-315.64,-0.330639
111.9127,-315.64,-0.318306
112.8149,-315.64,-0.319519
113.7159,-315.64,-0.324776
114.6192,-315.64,-0.323158
115.5236,-315.64,-0.319115
116.4264,-315.64,-0.325382
117.3292,-315.64,-0.319721
118.2308,-315.64,-0.315475
119.1309,-315.64,-0.313049
120.0313,-315.64,-0.308399
120.9324,-315.64,-0.307994
121.834,-315.64,-0.310623
122.7401,-315.64,-0.309005
123.644,-315.64,-0.308601
124.5478,-315.64,-0.306984
125.451,-315.64,-0.305366
126.3521,-315.64,-0.297279
127.2545,-315.64,-0.308803
128.1567,-315.64,-0.301524
129.0587,-315.64,-0.304355
129.9605,-315.64,-0.305568
130.8647,-315.64,-0.293639
131.7687,-315.64,-0.300311
132.6719,-315.64,-0.303951
133.5756,-315.64,-0.286765
134.4768,-315.64,-0.296672
135.381,-315.64,-0.292224
136.2812,-315.64,-0.294448
137.1824,-315.64,-0.293841
138.0856,-315.64,-0.287574
138.9887,-315.64,-0.292628
139.8916,-315.64,-0.290809
140.7929,-315.64,-0.289393
141.697,-315.64,-0.288585
142.5988,-315.64,-0.290404
143.5011,-315.64,-0.290202
144.4043,-315.64,-0.29465
145.3072,-315.64,-0.285552
146.2094,-315.64,-0.285754
147.1121,-315.64,-0.28818
148.0132,-315.64,-0.288382
148.9174,-315.64,-0.284945
149.818,-315.64,-0.282923
150.721,-315.64,-0.28818
151.6227,-315.64,-0.28171
152.5246,-315.64,-0.28353
153.4268,-315.64,-0.273825
154.3309,-315.64,-0.276858
155.234,-315.64,-0.281306
156.1361,-315.64,-0.279284
157.0394,-315.64,-0.274634
157.9414,-315.64,-0.276656
158.8432,-315.64,-0.271197
159.7464,-315.64,-0.274027
160.6477,-315.64,-0.27241
161.5517,-315.64,-0.276251
162.4556,-315.64,-0.268366
163.3592,-315.64,-0.269377
164.2601,-315.64,-0.266748
165.1628,-315.64,-0.269781
166.0654,-315.64,-0.268366
166.9684,-315.64,-0.264524
167.8712,-315.64,-0.263513
168.7722,-315.64,-0.269983
169.6742,-315.64,-0.265535
170.5766,-315.64,-0.262503
171.4798,-315.64,-0.267153
172.381,-315.64,-0.261087
173.2839,-315.64,-0.261087
174.1838,-315.64,-0.260278
175.088,-315.64,-0.264322
175.9926,-315.64,-0.264929
176.8967,-315.64,-0.263513
177.8005,-315.64,-0.260076
178.7041,-315.64,-0.257448
179.606,-315.64,-0.260278
180.5079,-315.64,-0.256235
181.4111,-315.64,-0.255224
182.3131,-315.64,-0.258863
183.2174,-315.64,-0.257448
184.1194,-315.64,-0.250169
185.0228,-315.64,-0.256841
185.9254,-315.64,-0.250978
186.8296,-315.64,-0.248147
187.7322,-315.64,-0.248552
188.6343,-315.64,-0.248147
189.5391,-315.64,-0.250574
190.4393,-315.64,-0.241475
191.3435,-315.64,-0.245115
192.246,-315.64,-0.246125
193.149,-315.64,-0.248147
194.0544,-315.64,-0.250776
194.9582,-315.64,-0.248956
195.8629,-315.64,-0.243901
196.7677,-315.64,-0.247945
197.6713,-315.64,-0.243093
198.5799,-315.64,-0.247136
199.4827,-315.64,-0.243497
200.3885,-315.64,-0.243497
201.2896,-315.64,-0.243093
202.1928,-315.64,-0.240869
203.0943,-315.64,-0.243901
203.9985,-315.64,-0.242082
204.8995,-315.64,-0.239656
205.7997,-315.64,-0.243093
206.6994,-315.64,-0.238442
207.6018,-315.64,-0.241475
208.5061,-315.64,-0.238847
209.4107,-315.64,-0.242082
210.312,-315.64,-0.240464
211.2163,-315.64,-0.24006
212.1189,-315.64,-0.237836
213.0204,-315.64,-0.239049
213.9255,-315.64,-0.23541
214.8291,-315.64,-0.231366
215.7322,-315.64,-0.229748
216.6379,-315.64,-0.238645
217.542,-315.64,-0.235005
218.4449,-315.64,-0.232377
219.3474,-315.64,-0.232781
220.2496,-315.64,-0.232579
221.1552,-315.64,-0.229344
222.0567,-315.64,-0.228737
222.9566,-315.64,-0.230153
223.8575,-315.64,-0.222874
224.7602,-315.64,-0.234601
225.6646,-315.64,-0.228131
226.5683,-315.64,-0.226513
227.4739,-315.64,-0.227727
228.3771,-315.64,-0.233792
229.281,-315.64,-0.223278
230.1818,-315.64,-0.231164
231.0848,-315.64,-0.23359
231.9869,-315.64,-0.220852
232.9092,-311.74,-0.213169
233.8115,-305.724,4.6025
234.7135,-299.708,3.97027
235.6181,-293.693,3.48623
236.5204,-287.641,3.22076
237.422,-281.659,3.08975
238.3236,-275.644,3.03576
239.2264,-269.628,3.03738
240.1257,-265.639,3.19791
241.0289,-265.64,3.26039
241.9297,-265.64,3.25877
242.8334,-265.64,3.25432
243.7364,-265.64,3.25432
244.6375,-265.64,3.25412
245.544,-265.64,3.24947
246.4469,-265.64,3.25412
247.3475,-265.64,3.25089
248.2487,-265.64,3.25412
249.1498,-265.64,3.25534
249.652,-265.64,3.2517