File: Tinius-Olsen_Levitation_force/Preprocessed_measures/20231204_1651GDBCOs2_sl6_4.txt.csv
Time(s),Displacement(mm),Force(N)
0.0,-266.958,3.10006
0.522,-270.043,3.03859
1.0225,-273.358,3.05436
1.5245,-276.708,3.06791
2.0259,-280.058,3.09662
2.5267,-283.408,3.12149
3.0285,-286.757,3.18356
3.5309,-290.072,3.22278
4.033,-293.424,3.28951
4.5352,-296.774,3.32024
5.039,-300.158,3.27818
5.539,-303.476,2.99674
6.0422,-306.83,2.19932
6.5438,-310.18,0.137826
7.0436,-313.496,-4.56685
7.5441,-316.779,-13.3506
8.0443,-316.8,-12.9944
8.5461,-316.8,-12.8696
9.049,-316.8,-12.7962
9.5496,-316.8,-12.7546
10.0501,-316.8,-12.722
10.5515,-316.8,-12.6913
11.0517,-316.8,-12.6662
11.5527,-316.8,-12.631
12.0527,-316.8,-12.6201
12.553,-316.8,-12.6044
13.0551,-316.8,-12.5902
13.5552,-316.8,-12.5744
14.0572,-316.8,-12.5483
14.5571,-316.8,-12.5356
15.0572,-316.8,-12.5247
15.5571,-316.8,-12.5154
16.0576,-316.8,-12.5043
16.559,-316.8,-12.5071
17.061,-316.8,-12.502
17.5626,-316.8,-12.4883
18.0645,-316.8,-12.4774
18.5666,-316.8,-12.4679
19.0698,-316.8,-12.4636
19.573,-316.8,-12.456
20.0733,-316.8,-12.4507
20.5744,-316.8,-12.4373
21.0761,-316.8,-12.4396
21.5783,-316.8,-12.443
22.0789,-316.8,-12.4315
22.5782,-316.8,-12.424
23.0815,-316.8,-12.4226
23.5845,-316.8,-12.4141
24.0846,-316.8,-12.404
24.5869,-316.8,-12.4086
25.0885,-316.8,-12.3991
25.59,-316.8,-12.3965
26.0934,-316.8,-12.3943
26.5958,-316.8,-12.3908
27.098,-316.8,-12.3898
27.602,-316.8,-12.3834
28.1032,-316.8,-12.3787
28.6074,-316.8,-12.3674
29.1069,-316.8,-12.372
29.6099,-316.8,-12.3672
30.1126,-316.8,-12.3743
30.614,-316.8,-12.3623
31.1145,-316.8,-12.3629
31.6153,-316.8,-12.3551
32.118,-316.8,-12.3545
32.6202,-316.8,-12.3512
33.1201,-316.8,-12.3439
33.6203,-316.8,-12.3377
34.1218,-316.8,-12.3409
34.6234,-316.8,-12.3344
35.1244,-316.8,-12.3304
35.6263,-316.8,-12.3308
36.1283,-316.8,-12.3223
36.632,-316.8,-12.3225
37.1358,-316.8,-12.3217
37.6367,-316.8,-12.3247
38.1392,-316.8,-12.312
38.6417,-316.8,-12.3061
39.1433,-316.8,-12.316
39.6452,-316.8,-12.3057
40.1446,-316.8,-12.3061
40.6446,-316.8,-12.2995
41.1451,-316.8,-12.2982
41.6447,-316.8,-12.3011
42.1447,-316.8,-12.2926
42.6452,-316.8,-12.2875
43.1453,-316.8,-12.2833
43.6464,-316.8,-12.2843
44.1478,-316.8,-12.2859
44.6517,-316.8,-12.2823
45.153,-316.8,-12.2736
45.6545,-316.8,-12.2817
46.1563,-316.8,-12.279
46.6581,-316.8,-12.2776
47.1583,-316.8,-12.2788
47.6585,-316.8,-12.2728
48.1608,-316.8,-12.2683
48.6619,-316.8,-12.2718
49.1623,-316.8,-12.2695
49.6643,-316.8,-12.2627
50.1653,-316.8,-12.2677
50.6683,-316.8,-12.2509
51.1709,-316.8,-12.2501
51.6717,-316.8,-12.2536
52.1749,-316.8,-12.2602
52.6754,-316.8,-12.2548
53.1763,-316.8,-12.2443
53.6784,-316.8,-12.2467
54.1809,-316.8,-12.2441
54.6833,-316.8,-12.2485
55.1827,-316.8,-12.2461
55.6849,-316.8,-12.241
56.1846,-316.8,-12.2374
56.6868,-316.8,-12.242
57.1883,-316.8,-12.2394
57.6882,-316.8,-12.2384
58.1896,-316.8,-12.2362
58.6903,-316.8,-12.2342
59.1924,-316.8,-12.223
59.6943,-316.8,-12.2249
60.1949,-316.8,-12.2253
60.6958,-316.8,-12.2204
61.2005,-316.8,-12.2249
61.7016,-316.8,-12.2192
62.2055,-316.8,-12.221
62.7045,-316.8,-12.223
63.2048,-316.8,-12.2069
63.7048,-316.8,-12.2153
64.2059,-316.8,-12.2093
64.7069,-316.8,-12.2127
65.2083,-316.8,-12.2081
65.7096,-316.8,-12.2036
66.2106,-316.8,-12.2099
66.7145,-316.8,-12.2052
67.2165,-316.8,-12.2028
67.7166,-316.8,-12.2058
68.221,-316.8,-12.1955
68.7226,-316.8,-12.2018
69.2245,-316.8,-12.2024
69.7265,-316.8,-12.1939
70.2272,-316.8,-12.1982
70.7295,-316.8,-12.1949
71.2301,-316.8,-12.1838
71.7313,-316.8,-12.1945
72.2316,-316.8,-12.1911
72.7326,-316.8,-12.1901
73.2332,-316.8,-12.1957
73.7337,-316.8,-12.1923
74.2386,-316.8,-12.1862
74.738,-316.8,-12.1816
75.2398,-316.8,-12.184
75.7426,-316.8,-12.1747
76.2435,-316.8,-12.1838
76.7437,-316.8,-12.1826
77.2467,-316.8,-12.1761
77.7486,-316.8,-12.181
78.2516,-316.8,-12.1777
78.7535,-316.8,-12.1735
79.2541,-316.8,-12.1727
79.7549,-316.8,-12.1816
80.2554,-316.8,-12.1703
80.7567,-316.8,-12.1729
81.2599,-316.8,-12.1664
81.7621,-316.8,-12.1701
82.264,-316.8,-12.1674
82.765,-316.8,-12.1735
83.2668,-316.8,-12.164
83.767,-316.8,-12.1573
84.2706,-316.8,-12.1602
84.7698,-316.8,-12.1628
85.2715,-316.8,-12.1634
85.7712,-316.8,-12.1636
86.2725,-316.8,-12.1622
86.7746,-316.8,-12.1606
87.2755,-316.8,-12.1638
87.776,-316.8,-12.1606
88.2773,-316.8,-12.1535
88.7773,-316.8,-12.1616
89.2799,-316.8,-12.1476
89.7816,-316.8,-12.1488
90.2811,-316.8,-12.1456
90.7808,-316.8,-12.1452
91.2826,-316.8,-12.148
91.7827,-316.8,-12.1424
92.2856,-316.8,-12.1432
92.786,-316.8,-12.1442
93.2893,-316.8,-12.146
93.7918,-316.8,-12.146
94.2945,-316.8,-12.1401
94.797,-316.8,-12.1357
95.2995,-316.8,-12.1399
95.8024,-316.8,-12.1371
96.3042,-316.8,-12.1371
96.8051,-316.8,-12.1395
97.3059,-316.8,-12.1401
97.807,-316.8,-12.1335
98.3071,-316.8,-12.1325
98.8073,-316.8,-12.132
99.3103,-316.8,-12.1276
99.8108,-316.8,-12.1308
100.3119,-316.8,-12.1333
100.815,-316.8,-12.1292
101.316,-316.8,-12.1195
101.8187,-316.8,-12.1345
102.3206,-316.8,-12.1244
102.8232,-316.8,-12.1347
103.3252,-316.8,-12.1171
103.8252,-316.8,-12.1312
104.3252,-316.8,-12.126
104.8276,-316.8,-12.1201
105.3276,-316.8,-12.1221
105.8274,-316.8,-12.1232
106.3293,-316.8,-12.1134
106.8308,-316.8,-12.1108
107.3303,-316.8,-12.1147
107.8312,-316.8,-12.1096
108.3337,-316.8,-12.1171
108.835,-316.8,-12.1199
109.3366,-316.8,-12.1191
109.8377,-316.8,-12.1163
110.3376,-316.8,-12.108
110.8382,-316.8,-12.1155
111.3398,-316.8,-12.1039
111.8415,-316.8,-12.108
112.3425,-316.8,-12.1078
112.8449,-316.8,-12.0971
113.3469,-316.8,-12.1056
113.8476,-316.8,-12.1086
114.3691,-315.559,-12.107
114.8736,-312.209,-3.37536
115.3745,-308.859,1.47165
115.8743,-305.544,3.16516
116.3758,-302.194,3.64818
116.8753,-298.879,3.68458
117.3772,-295.529,3.58571
117.8779,-292.177,3.46541
118.3798,-288.825,3.35239
118.8829,-285.475,3.26039
119.3842,-282.126,3.19347
119.8867,-278.81,3.13281
120.3891,-275.427,3.08793
120.8902,-272.109,3.076
121.393,-268.759,3.08995
121.8949,-266.799,3.16698
122.3958,-266.799,3.18679
122.8963,-266.8,3.18518
123.3987,-266.8,3.18214
123.8996,-266.8,3.17952
124.3997,-266.8,3.18578
124.9005,-266.8,3.18437
125.4015,-266.8,3.18538
125.9019,-266.8,3.17972
126.4026,-266.8,3.17729
126.9048,-266.8,3.19144
127.0046,-266.8,3.18619