File: Tinius-Olsen_Levitation_force/Preprocessed_measures/20231204_1545YBCOs1_sl9_5.txt.csv
Time(s),Displacement(mm),Force(N)
0.0,-265.774,3.21631
0.8216,-270.871,3.08712
1.6261,-276.24,2.99512
2.4278,-281.571,2.97794
3.2289,-286.908,2.9747
4.0309,-292.243,2.93568
4.8336,-297.608,2.79455
5.6359,-302.941,2.41647
6.4372,-308.307,1.67889
7.2385,-313.639,0.249029
8.0399,-315.64,-0.984914
8.8406,-315.64,-0.826198
9.6407,-315.64,-0.758263
10.4406,-315.64,-0.711558
11.2463,-315.64,-0.674962
12.0495,-315.64,-0.658181
12.8527,-315.64,-0.624618
13.6546,-315.64,-0.610263
14.4577,-315.64,-0.600356
15.2599,-315.64,-0.584383
16.0617,-315.64,-0.573465
16.8628,-315.64,-0.561738
17.6629,-315.64,-0.550011
18.4635,-315.64,-0.538689
19.2662,-315.64,-0.532017
20.0665,-315.64,-0.525345
20.8722,-315.64,-0.514831
21.6739,-315.64,-0.513618
22.4761,-315.64,-0.504722
23.277,-315.64,-0.500476
24.0802,-315.64,-0.490771
24.8808,-315.64,-0.490164
25.6831,-315.64,-0.48329
26.4864,-315.64,-0.478235
27.2885,-315.64,-0.478033
28.089,-315.64,-0.469339
28.8941,-315.64,-0.462263
29.6985,-315.64,-0.453569
30.5005,-315.64,-0.451547
31.3036,-315.64,-0.449323
32.104,-315.64,-0.446694
32.9065,-315.64,-0.44265
33.7081,-315.64,-0.440831
34.5116,-315.64,-0.436383
35.3137,-315.64,-0.431126
36.1152,-315.64,-0.427082
36.919,-315.64,-0.43335
37.7225,-315.64,-0.423241
38.5263,-315.64,-0.425667
39.3305,-315.64,-0.419399
40.136,-315.64,-0.413738
40.937,-315.64,-0.417579
41.7385,-315.64,-0.413738
42.5385,-315.64,-0.405853
43.3387,-315.64,-0.403629
44.144,-315.64,-0.411514
44.945,-315.64,-0.40565
45.7451,-315.64,-0.401
46.5503,-315.64,-0.397967
47.3521,-315.64,-0.392913
48.1563,-315.64,-0.38988
48.9568,-315.64,-0.386645
49.758,-315.64,-0.393519
50.5604,-315.64,-0.381186
51.3605,-315.64,-0.379366
52.1633,-315.64,-0.379973
52.9656,-315.64,-0.383612
53.766,-315.64,-0.377344
54.5668,-315.64,-0.380984
55.3711,-315.64,-0.377344
56.1725,-315.64,-0.371481
56.9758,-315.64,-0.37512
57.7784,-315.64,-0.367033
58.5797,-315.64,-0.36582
59.3826,-315.64,-0.360563
60.1848,-315.64,-0.364607
60.9899,-315.64,-0.361169
61.7954,-315.64,-0.361776
62.5965,-315.64,-0.359552
63.3987,-315.64,-0.356721
64.2015,-315.64,-0.35753
65.0028,-315.64,-0.352071
65.8049,-315.64,-0.352475
66.608,-315.64,-0.346612
67.4113,-315.64,-0.347421
68.2112,-315.64,-0.343781
69.0129,-315.64,-0.342164
69.8153,-315.64,-0.344792
70.6214,-315.64,-0.344995
71.4232,-315.64,-0.347825
72.225,-315.64,-0.337109
73.0275,-315.64,-0.343984
73.8287,-315.64,-0.340546
74.631,-315.64,-0.342568
75.4324,-315.64,-0.33529
76.2334,-315.64,-0.335492
77.0336,-315.64,-0.336907
77.8346,-315.64,-0.326393
78.6368,-315.64,-0.334076
79.4391,-315.64,-0.331852
80.2403,-315.64,-0.329224
81.0414,-315.64,-0.329426
81.8414,-315.64,-0.328213
82.6428,-315.64,-0.324372
83.4435,-315.64,-0.325382
84.2436,-315.64,-0.319115
85.046,-315.64,-0.324574
85.8481,-315.64,-0.321945
86.651,-315.64,-0.328415
87.4501,-315.64,-0.325787
88.2538,-315.64,-0.323158
89.0571,-315.64,-0.312038
89.8611,-315.64,-0.319115
90.6651,-315.64,-0.319721
91.4686,-315.64,-0.313251
92.2722,-315.64,-0.316082
93.079,-315.64,-0.312645
93.8797,-315.64,-0.311027
94.6817,-315.64,-0.311027
95.4815,-315.64,-0.309612
96.2846,-315.64,-0.315475
97.0882,-315.64,-0.304557
97.889,-315.64,-0.31224
98.6893,-315.64,-0.304962
99.4929,-315.64,-0.305973
100.2935,-315.64,-0.299907
101.0958,-315.64,-0.307186
101.8953,-315.64,-0.303951
102.699,-315.64,-0.300311
103.5003,-315.64,-0.301322
104.3025,-315.64,-0.294448
105.1047,-315.64,-0.298896
105.909,-315.64,-0.295055
106.7126,-315.64,-0.296874
107.5138,-315.64,-0.299705
108.3148,-315.64,-0.291011
109.1174,-315.64,-0.294448
109.9193,-315.64,-0.290202
110.7198,-315.64,-0.297683
111.5228,-315.64,-0.295257
112.3239,-315.64,-0.289191
113.125,-315.64,-0.29465
113.9252,-315.64,-0.287371
114.7278,-315.64,-0.288787
115.5288,-315.64,-0.284136
116.3305,-315.64,-0.284743
117.1319,-315.64,-0.288989
117.9317,-315.64,-0.282519
118.7348,-315.64,-0.286563
119.5349,-315.64,-0.281508
120.3399,-315.64,-0.281104
121.1401,-315.64,-0.282317
121.9464,-315.64,-0.284743
122.7491,-315.64,-0.28353
123.5494,-315.64,-0.274229
124.3518,-315.64,-0.273016
125.1569,-315.64,-0.276656
125.9578,-315.64,-0.272814
126.7591,-315.64,-0.280295
127.5595,-315.64,-0.268973
128.363,-315.64,-0.270186
129.1662,-315.64,-0.26877
129.9665,-315.64,-0.264727
130.7722,-315.64,-0.273218
131.5727,-315.64,-0.27888
132.3742,-315.64,-0.273016
133.1749,-315.64,-0.273623
133.9762,-315.64,-0.269983
134.7759,-315.64,-0.263311
135.5768,-315.64,-0.270792
136.3824,-315.64,-0.263513
137.1841,-315.64,-0.261492
137.9856,-315.64,-0.262705
138.7865,-315.64,-0.264727
139.5881,-315.64,-0.2623
140.3927,-315.64,-0.265131
141.1943,-315.64,-0.270994
141.996,-315.64,-0.266748
142.7971,-315.64,-0.259874
143.5992,-315.64,-0.266546
144.4008,-315.64,-0.263918
145.2041,-315.64,-0.25765
146.0076,-315.64,-0.257448
146.8074,-315.64,-0.254011
147.6105,-315.64,-0.255628
148.4115,-315.64,-0.257246
149.2172,-315.64,-0.256033
150.0193,-315.64,-0.253
150.8203,-315.64,-0.253606
151.6217,-315.64,-0.252191
152.4257,-315.64,-0.25118
153.2301,-315.64,-0.250978
154.0321,-315.64,-0.246125
154.8341,-315.64,-0.249158
155.6347,-315.64,-0.248147
156.4397,-315.64,-0.253404
157.2413,-315.64,-0.250776
158.0423,-315.64,-0.242486
158.8476,-315.64,-0.245317
159.6481,-315.64,-0.245317
160.4489,-315.64,-0.252798
161.2502,-315.64,-0.245519
162.0522,-315.64,-0.24936
162.8535,-315.64,-0.245317
163.6543,-315.64,-0.246125
164.4543,-315.64,-0.248147
165.2561,-315.64,-0.245721
166.0591,-315.64,-0.241677
166.8602,-315.64,-0.239858
167.6622,-315.64,-0.24006
168.4622,-315.64,-0.234399
169.2645,-315.64,-0.243901
170.0686,-315.64,-0.249765
170.8685,-315.64,-0.242284
171.6722,-315.64,-0.244508
172.4741,-315.64,-0.242284
173.276,-315.64,-0.23824
174.0778,-315.64,-0.236016
174.8799,-315.64,-0.236016
175.6821,-315.64,-0.231164
176.4844,-315.64,-0.236623
177.2841,-315.64,-0.234196
178.084,-315.64,-0.231972
178.8879,-315.64,-0.238038
179.6903,-315.64,-0.240464
180.4953,-315.64,-0.233388
181.2959,-315.64,-0.233388
182.0959,-315.64,-0.231568
182.9001,-315.64,-0.235207
183.7008,-315.64,-0.232983
184.5001,-315.64,-0.230759
185.3017,-315.64,-0.231164
186.1051,-315.64,-0.22894
186.9102,-315.64,-0.231164
187.7125,-315.64,-0.226311
188.5152,-315.64,-0.227727
189.3196,-315.64,-0.229748
190.1206,-315.64,-0.229951
190.923,-315.64,-0.225098
191.7222,-315.64,-0.225907
192.5248,-315.64,-0.225907
193.3265,-315.64,-0.229142
194.1301,-315.64,-0.228333
194.9325,-315.64,-0.221661
195.7546,-314.414,-0.222672
196.5568,-309.081,4.59967
197.3595,-303.715,4.31014
198.1592,-298.383,3.76201
198.9615,-293.048,3.39565
199.7633,-287.682,3.20277
200.5654,-282.35,3.10107
201.3656,-277.018,3.05537
202.1672,-271.686,3.06205
202.9697,-266.317,3.2149
203.7708,-265.639,3.3257
204.5716,-265.64,3.3259
205.3732,-265.64,3.32833
206.1945,-263.098,3.3263
206.9949,-257.731,3.4458
207.7972,-252.399,3.50423
208.5987,-247.067,3.51919
209.4011,-241.698,3.53051
210.2066,-236.329,3.51899
211.0097,-230.963,3.51252
211.8123,-225.631,3.51474
212.6133,-220.265,3.50423
213.4146,-215.639,3.50463
214.215,-215.64,3.50827
215.0177,-215.64,3.5018
215.8176,-215.64,3.5014
216.6409,-212.394,3.50726
217.4404,-207.062,3.5111
218.2412,-201.73,3.50342
219.0427,-196.398,3.50544
219.8456,-191.032,3.5018
220.6456,-185.7,3.49998
221.4478,-180.368,3.49857
222.2478,-175.036,3.4927
223.0486,-169.703,3.4925
223.8514,-165.639,3.49654
224.6544,-165.64,3.4929