File: Tinius-Olsen_Levitation_force/Preprocessed_measures/20231204_1223cut1_highN_1.txt.csv
Time(s),Displacement(mm),Force(N)
0.0,-281.242,2.81053
1.4467,-281.242,2.80547
2.8501,-281.242,2.81194
4.2544,-281.242,2.80749
5.6616,-281.242,2.80305
7.0651,-281.242,2.81113
8.4691,-281.242,2.80588
9.8725,-281.242,2.82185
11.274,-281.242,2.81538
12.6799,-281.242,2.81801
14.0826,-281.242,2.81942
15.5099,-281.0,2.83256
16.9133,-281.0,2.83398
18.3169,-281.0,2.82832
19.7192,-281.0,2.83378
21.1245,-281.0,2.83034
22.5278,-281.0,2.84833
23.9341,-281.0,2.83863
25.3367,-281.0,2.84005
26.7386,-281.0,2.83701
28.1418,-281.0,2.83681
29.5501,-281.0,2.84631
30.9522,-281.0,2.84227
32.3618,-281.0,2.84126
33.766,-281.0,2.84935
35.1686,-281.0,2.84955
36.5738,-281.0,2.86451
37.9762,-281.0,2.84935
39.3823,-278.557,2.92132
40.7853,-275.747,3.01433
42.1872,-263.469,3.40576
43.5904,-249.421,3.48199
44.9921,-236.568,3.42214
46.3984,-237.422,3.47248
47.8025,-248.197,3.46399
49.2052,-262.245,3.41547
50.6088,-276.246,3.0392
52.0102,-290.293,2.66879
53.4166,-292.532,2.57377
54.8226,-292.532,2.57215
56.2265,-292.532,2.58226
57.6298,-292.532,2.57538
59.0343,-292.532,2.58327
60.4364,-292.532,2.58246
61.8421,-292.532,2.57963
63.2462,-292.532,2.58165
64.6546,-292.532,2.57478
66.0553,-292.532,2.58246
67.4592,-292.532,2.58388
68.8616,-292.532,2.58084
70.2651,-292.532,2.58509
71.6697,-292.532,2.59095
73.0719,-292.532,2.59237
74.4733,-292.532,2.58388
75.8768,-292.532,2.58408
77.2812,-292.532,2.58954
78.6862,-292.532,2.59055
80.0917,-292.532,2.58994
81.4931,-292.532,2.59398
82.8941,-292.532,2.59378
84.2988,-292.532,2.58873
85.7069,-292.532,2.59439
87.1064,-292.532,2.58772
88.51,-292.532,2.59479
89.9129,-292.532,2.59156
91.3198,-292.532,2.59338
92.7235,-292.532,2.59156
94.1281,-292.532,2.59196
95.5318,-292.532,2.58711
96.937,-292.532,2.59035
98.3396,-292.532,2.59318
99.747,-292.532,2.59257
101.1491,-292.532,2.58812
102.5569,-292.532,2.58792
103.9623,-292.532,2.60308
105.3648,-292.532,2.58731
106.7694,-292.532,2.59277
108.1742,-292.532,2.5958
109.5779,-292.532,2.59176
110.9823,-292.532,2.59439
112.3821,-292.532,2.60025
113.7871,-292.532,2.60268
115.1932,-292.532,2.59843
116.5975,-292.532,2.59621
118.0027,-292.532,2.58812
119.4115,-292.532,2.5958
120.8175,-292.532,2.59277
122.2206,-292.532,2.59055
123.6229,-292.532,2.59783
125.0275,-292.532,2.59318
126.4292,-292.532,2.58428
127.8323,-292.532,2.60531
129.2357,-292.532,2.60106
130.6392,-292.532,2.60329
132.0432,-292.532,2.58954
133.4501,-292.532,2.60672
134.8565,-292.532,2.59702
136.2844,-292.0,2.61441
137.6846,-292.0,2.63119
139.0903,-292.0,2.6322
140.4985,-292.0,2.62532
141.9025,-292.0,2.62775
143.305,-292.0,2.62836
144.7113,-292.0,2.61764
146.1145,-292.0,2.61461
147.5205,-292.0,2.62451
148.9265,-292.0,2.62168
150.3341,-292.0,2.62633
151.7374,-292.0,2.63402
153.1375,-292.0,2.61804
154.5407,-292.0,2.61602
155.9467,-292.0,2.62532
157.3498,-292.0,2.62694
158.7514,-292.0,2.63159
160.1561,-292.0,2.61784
161.5592,-292.0,2.63078
162.9626,-292.0,2.62391
164.3668,-292.0,2.62067
165.7728,-292.0,2.62229
167.173,-292.0,2.62088
168.5728,-292.0,2.6233
169.9781,-292.0,2.62553
171.3829,-292.0,2.62371
172.7856,-292.0,2.62573
174.1875,-292.0,2.6231
175.5891,-292.0,2.61986
176.9929,-292.0,2.6324
178.4006,-292.0,2.62775
179.8053,-292.0,2.62654
181.2075,-292.0,2.61703
182.6106,-292.0,2.63361
184.0145,-292.0,2.62532
185.4184,-292.0,2.62836
186.8306,-292.0,2.62573
188.2372,-292.0,2.6328
189.6443,-292.0,2.62128
191.0487,-292.0,2.60794
192.4507,-292.0,2.61643
193.8537,-292.0,2.62997
195.2553,-292.0,2.63058
196.662,-292.0,2.62836
198.0669,-292.0,2.62714
199.4672,-292.0,2.62371
200.8679,-292.0,2.61582
202.2724,-292.0,2.62795
203.6762,-292.0,2.62067
205.0845,-292.0,2.62047
206.485,-292.0,2.6229
207.8898,-292.0,2.62755
209.2918,-292.0,2.6235
210.6987,-292.0,2.62896
212.1014,-292.0,2.63442
213.5069,-292.0,2.63159
214.9093,-292.0,2.63745
216.3111,-292.0,2.6231
217.7355,-295.9,2.61845
219.1388,-300.001,2.01513
220.5424,-300.0,2.0402
221.9456,-300.0,2.04646
223.3517,-300.0,2.04889
224.7575,-300.0,2.059
226.1613,-300.0,2.05233
227.5659,-300.0,2.05455
228.966,-300.0,2.05758
230.3709,-300.0,2.06223
231.793,-308.556,1.3099
233.1969,-316.801,-4.49224
234.6014,-316.8,-8.47025
236.0043,-316.8,-7.76301
237.4107,-316.8,-7.43445
238.8183,-316.8,-7.22822
240.2235,-316.8,-7.06809
241.6292,-316.8,-6.96295
243.0314,-316.8,-6.86166
244.4353,-316.8,-6.77957
245.8399,-316.8,-6.6989
247.2433,-316.8,-6.64289
248.6477,-316.8,-6.58224
250.0507,-316.8,-6.53897
251.4528,-316.8,-6.49408
252.8602,-316.8,-6.44495
254.2626,-316.8,-6.41665
255.6693,-316.8,-6.37298
257.0723,-316.8,-6.34063
258.4748,-316.8,-6.31272
259.8763,-316.8,-6.27775
261.2806,-316.8,-6.25672
262.6839,-316.8,-6.227
264.0871,-316.8,-6.20172
265.4898,-316.8,-6.17625
266.8937,-316.8,-6.15926
268.3002,-316.8,-6.14208
269.709,-316.8,-6.1071
271.114,-316.8,-6.09517
272.5147,-316.8,-6.07657
273.9201,-316.8,-6.05433
275.3207,-316.8,-6.0426
276.7261,-316.8,-6.03108
278.1288,-316.8,-6.00297
279.5317,-316.8,-5.99246
280.9354,-316.8,-5.97831
282.3381,-316.8,-5.96355
283.7437,-316.8,-5.95485
285.1473,-316.8,-5.93625
286.5528,-316.8,-5.92513
287.959,-316.8,-5.91806
289.3622,-316.8,-5.89925
290.7662,-316.8,-5.89157
292.17,-316.8,-5.87964
293.5748,-316.8,-5.85861
294.9794,-316.8,-5.85194
296.381,-316.8,-5.84406
297.7844,-316.8,-5.83031
299.1893,-316.8,-5.82606
300.5943,-316.8,-5.81373
301.9983,-316.8,-5.79432
303.3999,-316.8,-5.77915
304.8037,-316.8,-5.78219
306.2069,-316.8,-5.76824
307.6125,-316.8,-5.76197
309.0169,-316.8,-5.74761
310.4214,-316.8,-5.74377
311.8246,-316.8,-5.73609
313.2277,-316.8,-5.72942
314.6323,-316.8,-5.71809
316.0375,-316.8,-5.71223
317.4412,-316.8,-5.70131
318.844,-316.8,-5.69767
320.2466,-316.8,-5.68918
321.6472,-316.8,-5.68756
323.0536,-316.8,-5.66795
324.4561,-316.8,-5.66654
325.8555,-316.8,-5.66168
327.2593,-316.8,-5.65178
328.6648,-316.8,-5.64935
330.0676,-316.8,-5.635
331.4719,-316.8,-5.62913
332.8731,-316.8,-5.62751
334.2748,-316.8,-5.62327
335.6789,-316.8,-5.60891
337.0854,-316.8,-5.60891
338.4885,-316.8,-5.59739
339.8915,-316.8,-5.59638
341.2916,-316.8,-5.58586
342.6965,-316.8,-5.58121
344.102,-316.8,-5.5703
345.5045,-316.8,-5.56888
346.9075,-316.8,-5.5709
348.3111,-316.8,-5.56544
349.7158,-316.8,-5.5519
351.1205,-316.8,-5.54644
352.5249,-316.8,-5.54138
353.9247,-316.8,-5.53552
355.3287,-316.8,-5.53714
356.7298,-316.8,-5.52723
358.1345,-316.8,-5.52036
359.5388,-316.8,-5.51914
360.9415,-316.8,-5.50984
362.3452,-316.8,-5.50944
363.75,-316.8,-5.50236
365.1552,-316.8,-5.49933
366.5623,-316.8,-5.49367
367.9665,-316.8,-5.48518
369.3689,-316.8,-5.48012
370.7701,-316.8,-5.46698
372.1731,-316.8,-5.4781
373.5758,-316.8,-5.47446
374.9823,-316.8,-5.47587
376.3885,-316.8,-5.45909
377.7905,-316.8,-5.45525
379.1928,-316.8,-5.45181
380.5973,-316.8,-5.45303
382.0026,-316.8,-5.44514
383.4032,-316.8,-5.44069
384.8054,-316.8,-5.43827
386.2104,-316.8,-5.43564
387.6121,-316.8,-5.42513
389.0156,-316.8,-5.43342
390.4206,-316.8,-5.42593
391.822,-316.8,-5.41946
393.229,-316.8,-5.40754
394.6335,-316.8,-5.41421
396.0361,-316.8,-5.40187
397.4393,-316.8,-5.40005
398.8402,-316.8,-5.40127
400.2434,-316.8,-5.39338
401.6446,-316.8,-5.38813
403.0474,-316.8,-5.38995
404.4512,-316.8,-5.38388
405.8556,-316.8,-5.38267
407.2578,-316.8,-5.37984
408.6627,-316.8,-5.3762
410.0689,-316.8,-5.37215
411.4712,-316.8,-5.37054
412.8735,-316.8,-5.36467
414.2765,-316.8,-5.35861
414.5774,-316.8,-5.36245